time,strain,stress,temperature,type,strain_rate,max_strain,title,youngs,poissons
0.0,-1e-05,8.47,950,fatigue,0.001,0.00151,A-20,144000,0.3
0.09,0.0,11.98,,,,,,,
0.15,1e-05,14.12,,,,,,,
0.18,4e-05,18.22,,,,,,,
0.21,4e-05,18.36,,,,,,,
0.25,6e-05,21.86,,,,,,,
0.31,9e-05,25.56,,,,,,,
0.31,9e-05,25.98,,,,,,,
0.34,0.00011,29.63,,,,,,,
0.4,0.00014,32.95,,,,,,,
0.4,0.00014,33.31,,,,,,,
0.46,0.00017,37.38,,,,,,,
0.5,0.00018,39.11,,,,,,,
0.53,0.00019,42.19,,,,,,,
0.59,0.00022,45.97,,,,,,,
0.59,0.00023,48.26,,,,,,,
0.62,0.00024,50.28,,,,,,,
0.65,0.00027,54.11,,,,,,,
0.68,0.00029,57.66,,,,,,,
0.68,0.00032,61.02,,,,,,,
0.71,0.00032,61.77,,,,,,,
0.75,0.00034,65.71,,,,,,,
0.78,0.00037,69.33,,,,,,,
0.78,0.0004,72.23,,,,,,,
0.81,0.0004,73.52,,,,,,,
0.84,0.00042,76.46,,,,,,,
0.87,0.00045,79.67,,,,,,,
0.9,0.00047,83.56,,,,,,,
0.9,0.00047,83.86,,,,,,,
0.93,0.0005,86.53,,,,,,,
0.96,0.00052,90.4,,,,,,,
1.0,0.00054,92.68,,,,,,,
1.0,0.00055,93.43,,,,,,,
1.06,0.00057,95.78,,,,,,,
1.09,0.00058,96.21,,,,,,,
1.18,0.00058,94.0,,,,,,,
1.28,0.00055,88.36,,,,,,,
1.31,0.00054,88.07,,,,,,,
1.34,0.00052,85.34,,,,,,,
1.4,0.0005,82.66,,,,,,,
1.4,0.0005,81.9,,,,,,,
1.5,0.00047,78.1,,,,,,,
1.5,0.00047,77.75,,,,,,,
1.56,0.00045,73.75,,,,,,,
1.59,0.00043,71.45,,,,,,,
1.62,0.00042,69.45,,,,,,,
1.65,0.0004,66.99,,,,,,,
1.68,0.00038,63.76,,,,,,,
1.71,0.00037,63.12,,,,,,,
1.75,0.00035,59.81,,,,,,,
1.78,0.00032,55.75,,,,,,,
1.81,0.00032,55.07,,,,,,,
1.81,0.0003,52.27,,,,,,,
1.87,0.00027,48.3,,,,,,,
1.9,0.00025,45.25,,,,,,,
1.9,0.00025,45.1,,,,,,,
1.93,0.00022,40.48,,,,,,,
1.96,0.00019,36.82,,,,,,,
2.0,0.00018,34.91,,,,,,,
2.0,0.00017,33.11,,,,,,,
2.06,0.00014,29.57,,,,,,,
2.09,0.00012,25.76,,,,,,,
2.09,0.00011,24.1,,,,,,,
2.12,9e-05,22.25,,,,,,,
2.15,7e-05,17.89,,,,,,,
2.18,4e-05,13.48,,,,,,,
2.18,4e-05,13.15,,,,,,,
2.21,2e-05,9.68,,,,,,,
2.25,-1e-05,6.3,,,,,,,
2.28,-3e-05,2.61,,,,,,,
2.31,-4e-05,1.85,,,,,,,
2.31,-6e-05,-1.43,,,,,,,
2.34,-8e-05,-4.53,,,,,,,
2.37,-0.00011,-7.67,,,,,,,
2.4,-0.00011,-8.32,,,,,,,
2.43,-0.00013,-10.83,,,,,,,
2.5,-0.00016,-13.63,,,,,,,
2.5,-0.00016,-14.25,,,,,,,
2.53,-0.00018,-16.34,,,,,,,
2.59,-0.00021,-19.56,,,,,,,
2.59,-0.00021,-20.04,,,,,,,
2.65,-0.00024,-24.78,,,,,,,
2.68,-0.00026,-29.28,,,,,,,
2.68,-0.00026,-30.13,,,,,,,
2.71,-0.00029,-34.07,,,,,,,
2.75,-0.00031,-37.44,,,,,,,
2.78,-0.00034,-41.52,,,,,,,
2.78,-0.00035,-42.77,,,,,,,
2.81,-0.00036,-45.4,,,,,,,
2.84,-0.00039,-49.23,,,,,,,
2.87,-0.00041,-52.64,,,,,,,
2.9,-0.00042,-54.65,,,,,,,
2.9,-0.00044,-56.48,,,,,,,
2.93,-0.00046,-59.85,,,,,,,
2.96,-0.00049,-63.11,,,,,,,
3.0,-0.0005,-64.64,,,,,,,
3.03,-0.00051,-66.42,,,,,,,
3.06,-0.00054,-68.58,,,,,,,
3.09,-0.00054,-69.36,,,,,,,
3.18,-0.00054,-68.2,,,,,,,
3.28,-0.00052,-65.82,,,,,,,
3.34,-0.00051,-65.4,,,,,,,
3.4,-0.00051,-64.21,,,,,,,
3.5,-0.0005,-60.94,,,,,,,
3.5,-0.00049,-60.04,,,,,,,
3.59,-0.00046,-56.23,,,,,,,
3.59,-0.00046,-55.01,,,,,,,
3.62,-0.00044,-52.21,,,,,,,
3.68,-0.00041,-48.74,,,,,,,
3.68,-0.0004,-46.94,,,,,,,
3.71,-0.00039,-44.49,,,,,,,
3.75,-0.00036,-41.05,,,,,,,
3.78,-0.00034,-37.21,,,,,,,
3.81,-0.00031,-33.43,,,,,,,
3.87,-0.00029,-29.38,,,,,,,
3.87,-0.00027,-26.34,,,,,,,
3.9,-0.00026,-25.36,,,,,,,
3.93,-0.00024,-22.5,,,,,,,
3.96,-0.00021,-18.64,,,,,,,
4.0,-0.00019,-14.91,,,,,,,
4.0,-0.00019,-14.54,,,,,,,
4.03,-0.00016,-10.63,,,,,,,
4.06,-0.00013,-7.76,,,,,,,
4.09,-0.00011,-3.98,,,,,,,
4.09,-0.00011,-3.59,,,,,,,
4.12,-8e-05,0.26,,,,,,,
4.15,-6e-05,3.76,,,,,,,
4.18,-3e-05,7.44,,,,,,,
4.18,-3e-05,7.91,,,,,,,
4.21,-1e-05,11.15,,,,,,,
4.25,2e-05,14.51,,,,,,,
4.28,4e-05,18.07,,,,,,,
4.28,5e-05,19.17,,,,,,,
4.31,7e-05,21.96,,,,,,,
4.34,9e-05,25.31,,,,,,,
4.37,0.00012,28.6,,,,,,,
4.37,0.00013,29.31,,,,,,,
4.4,0.00014,31.78,,,,,,,
4.46,0.00017,34.7,,,,,,,
4.5,0.00018,36.13,,,,,,,
4.53,0.00019,38.67,,,,,,,
4.59,0.00022,42.01,,,,,,,
4.62,0.00025,46.61,,,,,,,
4.68,0.00027,51.2,,,,,,,
4.68,0.00028,52.09,,,,,,,
4.71,0.0003,54.05,,,,,,,
4.71,0.00032,57.42,,,,,,,
4.78,0.00035,62.65,,,,,,,
4.78,0.00036,64.61,,,,,,,
4.81,0.00037,66.39,,,,,,,
4.81,0.0004,69.92,,,,,,,
4.84,0.00042,73.01,,,,,,,
4.87,0.00045,76.19,,,,,,,
4.87,0.00045,77.21,,,,,,,
4.9,0.00047,79.74,,,,,,,
4.93,0.0005,83.04,,,,,,,
4.96,0.00052,86.24,,,,,,,
5.0,0.00054,87.58,,,,,,,
5.0,0.00055,88.8,,,,,,,
5.03,0.00057,92.05,,,,,,,
5.06,0.0006,95.23,,,,,,,
5.09,0.00061,96.48,,,,,,,
5.12,0.00062,98.55,,,,,,,
5.15,0.00065,101.1,,,,,,,
5.18,0.00066,101.61,,,,,,,
5.28,0.00066,100.3,,,,,,,
5.37,0.00064,96.09,,,,,,,
5.5,0.00063,92.66,,,,,,,
5.53,0.00062,90.89,,,,,,,
5.59,0.00061,87.92,,,,,,,
5.62,0.0006,85.54,,,,,,,
5.68,0.00058,80.98,,,,,,,
5.68,0.00057,80.36,,,,,,,
5.75,0.00055,75.57,,,,,,,
5.78,0.00053,71.96,,,,,,,
5.78,0.00052,71.44,,,,,,,
5.81,0.0005,67.09,,,,,,,
5.87,0.00047,63.34,,,,,,,
5.87,0.00046,61.28,,,,,,,
5.9,0.00045,59.1,,,,,,,
5.93,0.00042,55.05,,,,,,,
5.96,0.0004,50.98,,,,,,,
5.96,0.00039,49.98,,,,,,,
6.0,0.00037,47.22,,,,,,,
6.03,0.00035,43.65,,,,,,,
6.06,0.00032,39.39,,,,,,,
6.09,0.00032,38.45,,,,,,,
6.12,0.0003,35.4,,,,,,,
6.12,0.00027,31.81,,,,,,,
6.15,0.00024,28.43,,,,,,,
6.18,0.00023,26.84,,,,,,,
6.18,0.00022,24.65,,,,,,,
6.21,0.00019,21.18,,,,,,,
6.25,0.00017,17.61,,,,,,,
6.28,0.00016,15.47,,,,,,,
6.31,0.00014,13.58,,,,,,,
6.31,0.00012,10.2,,,,,,,
6.37,9e-05,6.47,,,,,,,
6.37,8e-05,4.41,,,,,,,
6.4,7e-05,3.34,,,,,,,
6.43,4e-05,-0.26,,,,,,,
6.46,2e-05,-3.68,,,,,,,
6.46,0.0,-6.01,,,,,,,
6.5,-1e-05,-7.0,,,,,,,
6.53,-3e-05,-9.4,,,,,,,
6.56,-6e-05,-11.93,,,,,,,
6.59,-6e-05,-12.94,,,,,,,
6.62,-8e-05,-15.51,,,,,,,
6.68,-0.00011,-17.57,,,,,,,
6.68,-0.00011,-17.37,,,,,,,
6.75,-0.00013,-21.58,,,,,,,
6.78,-0.00015,-24.3,,,,,,,
6.78,-0.00016,-25.26,,,,,,,
6.81,-0.00019,-29.74,,,,,,,
6.84,-0.00021,-33.21,,,,,,,
6.87,-0.00024,-36.69,,,,,,,
6.9,-0.00026,-40.11,,,,,,,
6.93,-0.00029,-44.22,,,,,,,
6.96,-0.00031,-47.31,,,,,,,
6.96,-0.00033,-48.58,,,,,,,
7.0,-0.00034,-50.44,,,,,,,
7.03,-0.00036,-54.01,,,,,,,
7.06,-0.00039,-57.53,,,,,,,
7.06,-0.00039,-58.45,,,,,,,
7.09,-0.00041,-60.88,,,,,,,
7.12,-0.00044,-63.87,,,,,,,
7.18,-0.00046,-67.5,,,,,,,
7.18,-0.00046,-67.92,,,,,,,
7.21,-0.00049,-71.3,,,,,,,
7.25,-0.00052,-74.33,,,,,,,
7.28,-0.00053,-76.4,,,,,,,
7.31,-0.00054,-78.04,,,,,,,
7.34,-0.00057,-81.23,,,,,,,
7.37,-0.00059,-84.52,,,,,,,
7.37,-0.00059,-84.8,,,,,,,
7.43,-0.00062,-88.34,,,,,,,
7.46,-0.00064,-91.16,,,,,,,
7.46,-0.00065,-91.43,,,,,,,
7.53,-0.00067,-93.59,,,,,,,
7.56,-0.00068,-94.21,,,,,,,
7.68,-0.00068,-92.69,,,,,,,
7.78,-0.00065,-87.31,,,,,,,
7.81,-0.00064,-85.58,,,,,,,
7.84,-0.00062,-81.13,,,,,,,
7.87,-0.0006,-78.88,,,,,,,
7.9,-0.00059,-77.0,,,,,,,
7.93,-0.00057,-72.74,,,,,,,
7.96,-0.00054,-68.73,,,,,,,
7.96,-0.00054,-68.21,,,,,,,
8.0,-0.00052,-64.1,,,,,,,
8.03,-0.00049,-60.78,,,,,,,
8.06,-0.00047,-56.84,,,,,,,
8.06,-0.00046,-56.4,,,,,,,
8.09,-0.00044,-52.84,,,,,,,
8.12,-0.00041,-48.87,,,,,,,
8.15,-0.00039,-45.33,,,,,,,
8.18,-0.00038,-44.32,,,,,,,
8.18,-0.00036,-41.53,,,,,,,
8.21,-0.00034,-38.01,,,,,,,
8.25,-0.00031,-34.08,,,,,,,
8.28,-0.0003,-32.18,,,,,,,
8.28,-0.00029,-30.67,,,,,,,
8.31,-0.00026,-26.95,,,,,,,
8.34,-0.00024,-23.29,,,,,,,
18.4,-0.00024,-16.6,,,,,,,
18.43,-0.00021,-13.41,,,,,,,
18.43,-0.00021,-12.9,,,,,,,
18.46,-0.00019,-9.69,,,,,,,
18.5,-0.00016,-6.29,,,,,,,
18.53,-0.00014,-2.46,,,,,,,
18.53,-0.00013,-1.57,,,,,,,
18.56,-0.00011,0.51,,,,,,,
18.59,-9e-05,4.71,,,,,,,
18.62,-6e-05,7.88,,,,,,,
18.62,-5e-05,9.62,,,,,,,
18.65,-4e-05,10.91,,,,,,,
18.68,-1e-05,14.5,,,,,,,
18.71,2e-05,17.98,,,,,,,
18.71,3e-05,20.67,,,,,,,
18.75,4e-05,21.5,,,,,,,
18.78,7e-05,24.51,,,,,,,
18.81,9e-05,27.95,,,,,,,
18.84,0.00011,30.75,,,,,,,
18.84,0.00012,31.05,,,,,,,
18.87,0.00014,33.93,,,,,,,
18.93,0.00017,37.05,,,,,,,
18.93,0.00017,37.24,,,,,,,
18.96,0.00019,39.7,,,,,,,
19.03,0.00021,42.9,,,,,,,
19.03,0.00022,43.46,,,,,,,
19.09,0.00024,47.91,,,,,,,
19.12,0.00027,51.85,,,,,,,
19.12,0.00028,53.09,,,,,,,
19.15,0.00029,55.45,,,,,,,
19.18,0.00032,58.77,,,,,,,
19.21,0.00034,62.62,,,,,,,
19.21,0.00036,65.14,,,,,,,
19.25,0.00037,66.46,,,,,,,
19.25,0.0004,69.41,,,,,,,
19.28,0.00042,72.58,,,,,,,
19.31,0.00045,76.83,,,,,,,
19.34,0.00045,77.59,,,,,,,
19.34,0.00047,80.24,,,,,,,
19.37,0.0005,82.42,,,,,,,
19.4,0.00052,87.0,,,,,,,
19.43,0.00053,88.1,,,,,,,
19.43,0.00055,89.72,,,,,,,
19.5,0.00057,93.73,,,,,,,
19.53,0.0006,96.33,,,,,,,
19.53,0.00061,97.5,,,,,,,
19.56,0.00062,99.87,,,,,,,
19.59,0.00065,103.69,,,,,,,
19.62,0.00068,106.26,,,,,,,
19.62,0.00068,106.65,,,,,,,
19.65,0.0007,110.52,,,,,,,
19.71,0.00073,114.1,,,,,,,
19.71,0.00075,116.29,,,,,,,
19.71,0.00075,116.74,,,,,,,
19.78,0.00078,121.04,,,,,,,
19.81,0.0008,124.91,,,,,,,
19.81,0.00083,128.52,,,,,,,
19.81,0.00083,128.56,,,,,,,
19.84,0.00085,132.23,,,,,,,
19.87,0.00088,134.9,,,,,,,
19.9,0.0009,138.44,,,,,,,
19.93,0.00093,140.81,,,,,,,
19.93,0.00093,141.32,,,,,,,
19.96,0.00096,143.88,,,,,,,
20.0,0.00098,146.09,,,,,,,
20.03,0.00099,147.29,,,,,,,
20.06,0.00101,147.78,,,,,,,
20.12,0.00101,146.91,,,,,,,
20.21,0.001,142.18,,,,,,,
20.28,0.00098,138.66,,,,,,,
20.31,0.00096,134.22,,,,,,,
20.31,0.00095,133.55,,,,,,,
20.37,0.00093,129.08,,,,,,,
20.4,0.0009,125.32,,,,,,,
20.43,0.00089,122.72,,,,,,,
20.43,0.00088,121.6,,,,,,,
20.46,0.00085,117.67,,,,,,,
20.5,0.00083,114.26,,,,,,,
20.53,0.00081,111.18,,,,,,,
20.53,0.0008,109.63,,,,,,,
20.56,0.00078,105.91,,,,,,,
20.59,0.00075,102.39,,,,,,,
20.62,0.00073,99.4,,,,,,,
20.62,0.00073,98.36,,,,,,,
20.65,0.0007,94.97,,,,,,,
20.68,0.00068,91.58,,,,,,,
20.71,0.00065,87.99,,,,,,,
20.71,0.00065,87.67,,,,,,,
20.75,0.00063,83.78,,,,,,,
20.78,0.0006,80.27,,,,,,,
20.81,0.00058,77.04,,,,,,,
20.81,0.00057,76.05,,,,,,,
20.84,0.00055,73.54,,,,,,,
20.87,0.00052,69.33,,,,,,,
20.9,0.0005,65.9,,,,,,,
20.93,0.00049,64.43,,,,,,,
20.93,0.00047,62.48,,,,,,,
20.96,0.00045,57.94,,,,,,,
21.0,0.00042,54.13,,,,,,,
21.03,0.00041,52.75,,,,,,,
21.03,0.0004,50.27,,,,,,,
21.06,0.00037,46.14,,,,,,,
21.12,0.00034,42.57,,,,,,,
21.12,0.00033,41.09,,,,,,,
21.15,0.00032,38.74,,,,,,,
21.18,0.00029,34.96,,,,,,,
21.21,0.00027,31.35,,,,,,,
21.21,0.00025,29.38,,,,,,,
21.25,0.00024,27.98,,,,,,,
21.28,0.00022,24.17,,,,,,,
21.31,0.00019,20.05,,,,,,,
21.31,0.00017,17.87,,,,,,,
21.31,0.00017,17.41,,,,,,,
21.34,0.00014,13.61,,,,,,,
21.4,0.00012,9.67,,,,,,,
21.43,9e-05,6.41,,,,,,,
21.43,9e-05,6.03,,,,,,,
21.43,6e-05,3.23,,,,,,,
21.5,4e-05,-0.53,,,,,,,
21.53,1e-05,-4.21,,,,,,,
21.53,1e-05,-4.61,,,,,,,
21.56,-1e-05,-7.33,,,,,,,
21.59,-4e-05,-10.6,,,,,,,
21.62,-6e-05,-13.13,,,,,,,
21.62,-7e-05,-13.46,,,,,,,
21.65,-9e-05,-15.55,,,,,,,
21.71,-0.00011,-18.35,,,,,,,
21.71,-0.00011,-18.75,,,,,,,
21.78,-0.00014,-22.06,,,,,,,
21.81,-0.00015,-23.77,,,,,,,
21.84,-0.00016,-25.58,,,,,,,
21.87,-0.00019,-30.97,,,,,,,
21.9,-0.00021,-34.66,,,,,,,
21.9,-0.00022,-35.19,,,,,,,
21.93,-0.00024,-38.59,,,,,,,
21.96,-0.00027,-42.21,,,,,,,
22.0,-0.00029,-46.35,,,,,,,
22.03,-0.00031,-48.36,,,,,,,
22.03,-0.00032,-49.37,,,,,,,
22.06,-0.00034,-53.13,,,,,,,
22.09,-0.00037,-55.92,,,,,,,
22.12,-0.00039,-58.9,,,,,,,
22.12,-0.00039,-59.84,,,,,,,
22.15,-0.00042,-63.48,,,,,,,
22.21,-0.00044,-67.28,,,,,,,
22.21,-0.00045,-68.52,,,,,,,
22.25,-0.00047,-71.18,,,,,,,
22.28,-0.00049,-74.72,,,,,,,
22.31,-0.00051,-77.64,,,,,,,
22.34,-0.00052,-78.88,,,,,,,
22.37,-0.00055,-83.12,,,,,,,
22.4,-0.00057,-87.68,,,,,,,
22.4,-0.00058,-88.41,,,,,,,
22.43,-0.0006,-92.28,,,,,,,
22.46,-0.00062,-96.08,,,,,,,
22.5,-0.00065,-99.98,,,,,,,
22.5,-0.00067,-103.5,,,,,,,
22.53,-0.00069,-105.7,,,,,,,
22.53,-0.0007,-107.4,,,,,,,
22.53,-0.00072,-111.0,,,,,,,
22.56,-0.00075,-114.7,,,,,,,
22.59,-0.00078,-118.3,,,,,,,
22.59,-0.0008,-121.7,,,,,,,
22.62,-0.00083,-125.1,,,,,,,
22.62,-0.00083,-125.8,,,,,,,
22.62,-0.00085,-128.5,,,,,,,
22.65,-0.00088,-131.6,,,,,,,
22.65,-0.0009,-134.4,,,,,,,
22.68,-0.00093,-137.2,,,,,,,
22.68,-0.00095,-140.1,,,,,,,
22.71,-0.00097,-142.4,,,,,,,
22.71,-0.00098,-142.8,,,,,,,
22.75,-0.00101,-145.5,,,,,,,
22.78,-0.00103,-147.9,,,,,,,
22.81,-0.00105,-149.2,,,,,,,
22.81,-0.00106,-149.3,,,,,,,
22.9,-0.00107,-148.0,,,,,,,
23.0,-0.00104,-140.5,,,,,,,
23.03,-0.00103,-138.4,,,,,,,
23.09,-0.00101,-133.8,,,,,,,
23.12,-0.00098,-129.4,,,,,,,
23.12,-0.00098,-129.4,,,,,,,
23.15,-0.00095,-125.6,,,,,,,
23.18,-0.00093,-121.9,,,,,,,
23.21,-0.0009,-117.4,,,,,,,
23.21,-0.0009,-117.1,,,,,,,
23.25,-0.00088,-112.8,,,,,,,
23.28,-0.00085,-109.6,,,,,,,
23.31,-0.00083,-105.3,,,,,,,
23.31,-0.00082,-104.1,,,,,,,
23.34,-0.0008,-101.3,,,,,,,
23.37,-0.00078,-97.76,,,,,,,
23.4,-0.00075,-94.5,,,,,,,
23.4,-0.00074,-91.3,,,,,,,
23.43,-0.00073,-89.72,,,,,,,
23.43,-0.0007,-86.43,,,,,,,
23.46,-0.00068,-82.94,,,,,,,
23.5,-0.00065,-79.24,,,,,,,
23.5,-0.00065,-78.58,,,,,,,
23.53,-0.00062,-75.88,,,,,,,
23.56,-0.0006,-72.72,,,,,,,
23.59,-0.00057,-68.73,,,,,,,
23.62,-0.00056,-66.53,,,,,,,
23.62,-0.00055,-65.52,,,,,,,
23.65,-0.00052,-61.88,,,,,,,
23.68,-0.0005,-58.72,,,,,,,
23.71,-0.00047,-55.26,,,,,,,
23.71,-0.00047,-54.52,,,,,,,
23.75,-0.00045,-51.89,,,,,,,
23.75,-0.00042,-48.32,,,,,,,
23.78,-0.0004,-45.12,,,,,,,
23.81,-0.00038,-43.24,,,,,,,
23.81,-0.00037,-41.98,,,,,,,
23.84,-0.00034,-38.23,,,,,,,
23.87,-0.00032,-34.88,,,,,,,
23.9,-0.0003,-32.14,,,,,,,
23.9,-0.00029,-31.26,,,,,,,
23.93,-0.00027,-28.23,,,,,,,
23.96,-0.00024,-25.23,,,,,,,
43.25,0.00091,134.31,,,,,,,
43.25,0.00092,135.36,,,,,,,
43.25,0.00095,138.8,,,,,,,
43.28,0.00097,141.66,,,,,,,
43.31,0.001,144.11,,,,,,,
43.31,0.00102,146.72,,,,,,,
43.34,0.00104,148.93,,,,,,,
43.34,0.00105,149.51,,,,,,,
43.37,0.00107,152.47,,,,,,,
43.4,0.0011,154.49,,,,,,,
43.43,0.00112,156.07,,,,,,,
43.43,0.00112,156.09,,,,,,,
43.5,0.00115,156.24,,,,,,,
43.53,0.00116,155.51,,,,,,,
43.62,0.00115,149.26,,,,,,,
43.68,0.00112,143.58,,,,,,,
43.71,0.0011,140.54,,,,,,,
43.75,0.00109,138.85,,,,,,,
43.78,0.00107,135.05,,,,,,,
43.78,0.00105,131.8,,,,,,,
43.84,0.00103,127.01,,,,,,,
43.84,0.00102,125.76,,,,,,,
43.87,0.001,122.45,,,,,,,
43.9,0.00097,118.97,,,,,,,
43.93,0.00095,114.43,,,,,,,
43.93,0.00095,114.05,,,,,,,
43.96,0.00092,109.96,,,,,,,
44.0,0.0009,105.91,,,,,,,
44.03,0.00087,101.59,,,,,,,
44.06,0.00084,97.85,,,,,,,
44.09,0.00082,94.54,,,,,,,
44.12,0.00079,90.51,,,,,,,
44.12,0.00078,88.84,,,,,,,
44.15,0.00077,86.77,,,,,,,
44.18,0.00074,83.07,,,,,,,
44.21,0.00072,79.53,,,,,,,
44.21,0.0007,76.56,,,,,,,
44.25,0.00069,75.81,,,,,,,
44.28,0.00067,72.0,,,,,,,
44.28,0.00064,68.8,,,,,,,
44.31,0.00061,65.26,,,,,,,
44.34,0.00061,64.47,,,,,,,
44.34,0.00059,61.38,,,,,,,
44.37,0.00056,58.29,,,,,,,
44.4,0.00054,54.59,,,,,,,
44.43,0.00053,52.85,,,,,,,
44.43,0.00051,51.15,,,,,,,
44.46,0.00049,47.48,,,,,,,
44.5,0.00046,44.07,,,,,,,
44.53,0.00045,41.55,,,,,,,
44.53,0.00044,40.4,,,,,,,
44.56,0.00041,37.02,,,,,,,
44.59,0.00039,33.42,,,,,,,
44.62,0.00037,30.4,,,,,,,
44.62,0.00036,29.84,,,,,,,
44.65,0.00033,26.37,,,,,,,
44.68,0.00031,22.66,,,,,,,
44.71,0.00028,19.38,,,,,,,
44.71,0.00028,19.1,,,,,,,
44.75,0.00026,15.69,,,,,,,
44.78,0.00023,12.38,,,,,,,
44.81,0.00021,8.81,,,,,,,
44.84,0.0002,8.41,,,,,,,
44.84,0.00018,5.11,,,,,,,
44.87,0.00016,2.02,,,,,,,
44.93,0.00013,-1.52,,,,,,,
44.93,0.00012,-2.32,,,,,,,
44.93,0.00011,-4.77,,,,,,,
45.0,8e-05,-8.26,,,,,,,
45.03,5e-05,-11.64,,,,,,,
45.03,5e-05,-12.12,,,,,,,
45.06,3e-05,-13.7,,,,,,,
45.09,0.0,-15.97,,,,,,,
45.12,-1e-05,-17.21,,,,,,,
45.15,-2e-05,-18.67,,,,,,,
45.21,-4e-05,-21.82,,,,,,,
45.25,-5e-05,-22.1,,,,,,,
45.28,-7e-05,-25.78,,,,,,,
45.31,-0.0001,-30.38,,,,,,,
45.31,-0.00011,-31.68,,,,,,,
45.34,-0.00012,-33.76,,,,,,,
45.37,-0.00015,-37.78,,,,,,,
45.4,-0.00017,-40.4,,,,,,,
45.43,-0.0002,-44.27,,,,,,,
45.43,-0.0002,-44.73,,,,,,,
45.43,-0.00022,-47.32,,,,,,,
45.46,-0.00025,-50.43,,,,,,,
45.5,-0.00027,-53.39,,,,,,,
45.53,-0.00029,-55.24,,,,,,,
45.53,-0.0003,-56.39,,,,,,,
45.56,-0.00033,-59.08,,,,,,,
45.59,-0.00035,-62.63,,,,,,,
45.62,-0.00037,-64.31,,,,,,,
45.62,-0.00038,-65.2,,,,,,,
45.68,-0.0004,-68.46,,,,,,,
45.71,-0.00043,-72.03,,,,,,,
45.71,-0.00043,-72.67,,,,,,,
45.75,-0.00045,-75.31,,,,,,,
45.81,-0.00048,-78.73,,,,,,,
45.81,-0.00049,-81.45,,,,,,,
45.84,-0.0005,-82.76,,,,,,,
45.87,-0.00053,-86.82,,,,,,,
45.9,-0.00055,-91.37,,,,,,,
45.93,-0.00058,-94.46,,,,,,,
45.93,-0.00058,-94.73,,,,,,,
45.93,-0.0006,-98.7,,,,,,,
45.96,-0.00063,-102.0,,,,,,,
46.0,-0.00066,-105.6,,,,,,,
46.0,-0.00068,-109.4,,,,,,,
46.03,-0.0007,-112.6,,,,,,,
46.03,-0.00071,-112.8,,,,,,,
46.03,-0.00073,-116.3,,,,,,,
46.06,-0.00076,-120.0,,,,,,,
46.09,-0.00078,-123.3,,,,,,,
46.09,-0.00081,-126.6,,,,,,,
46.12,-0.00084,-130.1,,,,,,,
46.12,-0.00085,-131.4,,,,,,,
46.12,-0.00086,-133.2,,,,,,,
46.15,-0.00089,-136.4,,,,,,,
46.15,-0.00091,-139.7,,,,,,,
46.18,-0.00094,-142.7,,,,,,,
46.21,-0.00096,-146.0,,,,,,,
46.21,-0.00099,-149.1,,,,,,,
46.21,-0.00099,-149.1,,,,,,,
46.25,-0.00102,-152.2,,,,,,,
46.25,-0.00104,-155.1,,,,,,,
46.28,-0.00107,-157.8,,,,,,,
46.31,-0.00109,-160.5,,,,,,,
46.31,-0.00112,-163.8,,,,,,,
46.31,-0.00112,-163.7,,,,,,,
46.34,-0.00114,-165.5,,,,,,,
46.37,-0.00117,-167.6,,,,,,,
46.4,-0.00119,-169.0,,,,,,,
46.43,-0.00121,-169.4,,,,,,,
46.46,-0.00122,-168.9,,,,,,,
46.53,-0.00122,-166.2,,,,,,,
46.62,-0.00119,-156.7,,,,,,,
46.68,-0.00117,-150.1,,,,,,,
46.71,-0.00114,-145.1,,,,,,,
46.71,-0.00114,-143.7,,,,,,,
46.75,-0.00112,-140.2,,,,,,,
46.78,-0.00109,-135.4,,,,,,,
46.81,-0.00107,-131.1,,,,,,,
46.81,-0.00106,-129.3,,,,,,,
46.84,-0.00104,-127.3,,,,,,,
46.87,-0.00102,-122.9,,,,,,,
46.9,-0.00099,-117.9,,,,,,,
46.93,-0.00097,-114.7,,,,,,,
46.93,-0.00096,-113.9,,,,,,,
46.96,-0.00094,-109.5,,,,,,,
46.96,-0.00091,-106.1,,,,,,,
47.0,-0.00089,-102.3,,,,,,,
47.03,-0.00088,-100.6,,,,,,,
47.03,-0.00086,-99.17,,,,,,,
47.06,-0.00084,-94.41,,,,,,,
47.09,-0.00081,-91.51,,,,,,,
47.12,-0.00079,-87.96,,,,,,,
47.12,-0.00078,-87.52,,,,,,,
47.15,-0.00076,-83.21,,,,,,,
47.18,-0.00073,-80.68,,,,,,,
47.18,-0.00071,-77.66,,,,,,,
47.21,-0.0007,-75.15,,,,,,,
47.25,-0.00068,-71.96,,,,,,,
47.28,-0.00066,-68.48,,,,,,,
47.31,-0.00063,-64.21,,,,,,,
47.31,-0.00062,-63.03,,,,,,,
47.34,-0.00061,-60.68,,,,,,,
47.37,-0.00058,-56.88,,,,,,,
47.4,-0.00056,-53.38,,,,,,,
47.4,-0.00054,-50.56,,,,,,,
47.43,-0.00053,-48.55,,,,,,,
47.46,-0.00051,-43.68,,,,,,,
47.5,-0.00048,-39.62,,,,,,,
47.53,-0.00046,-37.93,,,,,,,
47.53,-0.00045,-36.99,,,,,,,
47.56,-0.00043,-33.74,,,,,,,
47.59,-0.0004,-29.21,,,,,,,
47.62,-0.00039,-25.53,,,,,,,
47.62,-0.00038,-24.3,,,,,,,
47.65,-0.00035,-21.63,,,,,,,
47.68,-0.00033,-17.84,,,,,,,
47.71,-0.0003,-13.08,,,,,,,
47.71,-0.0003,-12.6,,,,,,,
47.75,-0.00028,-9.66,,,,,,,
47.78,-0.00025,-6.13,,,,,,,
47.81,-0.00023,-3.27,,,,,,,
47.81,-0.0002,-1.02,,,,,,,
47.81,-0.0002,-0.88,,,,,,,
47.87,-0.00018,4.34,,,,,,,
47.9,-0.00015,8.08,,,,,,,
47.9,-0.00013,10.32,,,,,,,
47.93,-0.00012,11.47,,,,,,,
47.93,-0.0001,14.35,,,,,,,
47.96,-7e-05,16.56,,,,,,,
48.03,-5e-05,21.54,,,,,,,
48.03,-5e-05,22.13,,,,,,,
48.06,-2e-05,25.63,,,,,,,
48.09,0.0,28.65,,,,,,,
48.12,3e-05,31.55,,,,,,,
48.12,3e-05,32.04,,,,,,,
48.15,5e-05,34.97,,,,,,,
48.18,8e-05,36.98,,,,,,,
48.21,9e-05,38.78,,,,,,,
48.25,0.0001,39.82,,,,,,,
48.28,0.00013,42.96,,,,,,,
48.31,0.00014,44.11,,,,,,,
48.34,0.00016,47.61,,,,,,,
48.4,0.00018,51.19,,,,,,,
48.4,0.00021,53.77,,,,,,,
48.4,0.00021,54.06,,,,,,,
48.43,0.00023,56.44,,,,,,,
48.46,0.00026,59.25,,,,,,,
48.5,0.00028,62.89,,,,,,,
48.5,0.00029,65.0,,,,,,,
48.53,0.00031,66.72,,,,,,,
48.56,0.00033,69.34,,,,,,,
48.59,0.00036,72.52,,,,,,,
48.62,0.00039,76.11,,,,,,,
48.62,0.00039,76.35,,,,,,,
48.65,0.00041,79.06,,,,,,,
48.65,0.00044,81.81,,,,,,,
48.68,0.00046,84.3,,,,,,,
48.71,0.00048,86.07,,,,,,,
48.71,0.00049,86.45,,,,,,,
48.75,0.00051,88.48,,,,,,,
48.78,0.00054,91.75,,,,,,,
48.81,0.00056,94.3,,,,,,,
48.81,0.00056,95.04,,,,,,,
48.84,0.00059,97.28,,,,,,,
48.9,0.00061,101.25,,,,,,,
48.9,0.00063,102.17,,,,,,,
48.93,0.00064,103.85,,,,,,,
48.96,0.00067,106.87,,,,,,,
49.0,0.00069,109.35,,,,,,,
49.0,0.0007,111.12,,,,,,,
49.03,0.00072,112.31,,,,,,,
49.06,0.00074,114.97,,,,,,,
49.09,0.00077,117.73,,,,,,,
49.12,0.00079,121.46,,,,,,,
49.12,0.00079,121.75,,,,,,,
49.12,0.00082,124.23,,,,,,,
49.15,0.00084,127.55,,,,,,,
49.18,0.00087,130.88,,,,,,,
49.18,0.0009,134.05,,,,,,,
49.21,0.00091,135.87,,,,,,,
49.21,0.00092,137.64,,,,,,,
49.25,0.00095,141.04,,,,,,,
103.37,0.00113,160.57,,,,,,,
103.4,0.00116,162.47,,,,,,,
103.4,0.00117,162.97,,,,,,,
103.4,0.00119,164.64,,,,,,,
103.43,0.00121,165.83,,,,,,,
103.43,0.00124,166.96,,,,,,,
103.46,0.00126,168.04,,,,,,,
103.5,0.00129,168.21,,,,,,,
103.5,0.00129,168.2,,,,,,,
103.53,0.00131,167.7,,,,,,,
103.56,0.00134,165.29,,,,,,,
103.59,0.00134,163.02,,,,,,,
103.68,0.00132,149.76,,,,,,,
103.71,0.00131,147.1,,,,,,,
103.75,0.00129,140.68,,,,,,,
103.78,0.00126,135.79,,,,,,,
103.81,0.00125,132.94,,,,,,,
103.81,0.00124,131.05,,,,,,,
103.84,0.00121,125.79,,,,,,,
103.87,0.00119,121.29,,,,,,,
103.9,0.00116,116.51,,,,,,,
103.9,0.00116,115.57,,,,,,,
103.9,0.00114,112.29,,,,,,,
103.93,0.00111,107.83,,,,,,,
103.96,0.00108,104.09,,,,,,,
104.0,0.00106,99.97,,,,,,,
104.0,0.00105,99.11,,,,,,,
104.03,0.00103,95.97,,,,,,,
104.03,0.00101,92.32,,,,,,,
104.06,0.00098,88.43,,,,,,,
104.09,0.00096,84.46,,,,,,,
104.09,0.00095,84.08,,,,,,,
104.12,0.00093,81.03,,,,,,,
104.15,0.00091,76.98,,,,,,,
104.18,0.00088,73.15,,,,,,,
104.18,0.00086,70.36,,,,,,,
104.21,0.00086,69.41,,,,,,,
104.25,0.00083,65.37,,,,,,,
104.25,0.0008,61.92,,,,,,,
104.28,0.00078,58.07,,,,,,,
104.31,0.00077,57.46,,,,,,,
104.31,0.00075,54.44,,,,,,,
104.34,0.00073,50.5,,,,,,,
104.37,0.0007,47.19,,,,,,,
104.4,0.00069,45.16,,,,,,,
104.4,0.00068,43.34,,,,,,,
104.43,0.00065,40.02,,,,,,,
104.46,0.00063,36.15,,,,,,,
104.5,0.0006,33.05,,,,,,,
104.5,0.0006,32.59,,,,,,,
104.53,0.00058,29.13,,,,,,,
104.56,0.00055,25.26,,,,,,,
104.59,0.00052,21.31,,,,,,,
104.59,0.00052,20.94,,,,,,,
104.62,0.0005,17.82,,,,,,,
104.65,0.00047,14.49,,,,,,,
104.68,0.00045,11.09,,,,,,,
104.68,0.00043,9.14,,,,,,,
104.71,0.00042,7.55,,,,,,,
104.75,0.0004,4.22,,,,,,,
104.78,0.00037,0.58,,,,,,,
104.78,0.00035,-2.31,,,,,,,
104.81,0.00035,-2.89,,,,,,,
104.84,0.00032,-6.26,,,,,,,
104.87,0.0003,-9.93,,,,,,,
104.9,0.00027,-13.03,,,,,,,
104.9,0.00027,-13.2,,,,,,,
104.93,0.00024,-15.8,,,,,,,
105.0,0.00022,-18.65,,,,,,,
105.0,0.00022,-18.7,,,,,,,
105.06,0.00019,-21.76,,,,,,,
105.09,0.00019,-23.19,,,,,,,
105.12,0.00017,-25.5,,,,,,,
105.15,0.00014,-29.92,,,,,,,
105.18,0.00012,-33.76,,,,,,,
105.21,9e-05,-37.01,,,,,,,
105.25,7e-05,-40.28,,,,,,,
105.25,4e-05,-43.59,,,,,,,
105.28,2e-05,-46.32,,,,,,,
105.28,1e-05,-47.1,,,,,,,
105.31,-1e-05,-49.05,,,,,,,
105.34,-3e-05,-51.72,,,,,,,
105.37,-6e-05,-54.28,,,,,,,
105.37,-9e-05,-56.78,,,,,,,
105.4,-9e-05,-57.32,,,,,,,
105.4,-0.00011,-59.51,,,,,,,
105.43,-0.00014,-62.18,,,,,,,
105.46,-0.00016,-64.07,,,,,,,
105.5,-0.00017,-65.36,,,,,,,
105.5,-0.00019,-67.0,,,,,,,
105.56,-0.00021,-69.18,,,,,,,
105.56,-0.00024,-71.56,,,,,,,
105.59,-0.00025,-72.52,,,,,,,
105.62,-0.00026,-73.95,,,,,,,
105.65,-0.00029,-76.35,,,,,,,
105.68,-0.00032,-78.8,,,,,,,
105.68,-0.00033,-80.49,,,,,,,
105.68,-0.00034,-81.42,,,,,,,
105.71,-0.00037,-84.0,,,,,,,
105.75,-0.00039,-87.6,,,,,,,
105.78,-0.00042,-90.75,,,,,,,
105.78,-0.00042,-91.21,,,,,,,
105.81,-0.00044,-93.73,,,,,,,
105.81,-0.00047,-96.64,,,,,,,
105.84,-0.00049,-99.97,,,,,,,
105.87,-0.00052,-102.9,,,,,,,
105.87,-0.00055,-105.6,,,,,,,
105.87,-0.00056,-107.0,,,,,,,
105.9,-0.00057,-108.2,,,,,,,
105.9,-0.0006,-111.5,,,,,,,
105.93,-0.00062,-114.4,,,,,,,
105.93,-0.00065,-117.4,,,,,,,
105.96,-0.00067,-119.8,,,,,,,
106.0,-0.0007,-122.7,,,,,,,
106.0,-0.00071,-123.4,,,,,,,
106.0,-0.00073,-125.4,,,,,,,
106.03,-0.00075,-128.0,,,,,,,
106.03,-0.00078,-130.4,,,,,,,
106.06,-0.0008,-132.9,,,,,,,
106.06,-0.00083,-135.0,,,,,,,
106.09,-0.00086,-137.5,,,,,,,
106.09,-0.00086,-138.2,,,,,,,
106.09,-0.00088,-139.8,,,,,,,
106.12,-0.00091,-141.6,,,,,,,
106.12,-0.00093,-143.8,,,,,,,
106.15,-0.00096,-145.9,,,,,,,
106.18,-0.00099,-147.8,,,,,,,
106.18,-0.00101,-150.0,,,,,,,
106.18,-0.00101,-150.1,,,,,,,
106.21,-0.00104,-151.9,,,,,,,
106.21,-0.00106,-153.7,,,,,,,
106.25,-0.00109,-155.5,,,,,,,
106.28,-0.00111,-157.2,,,,,,,
106.28,-0.00114,-159.1,,,,,,,
106.28,-0.00114,-159.1,,,,,,,
106.31,-0.00117,-160.6,,,,,,,
106.34,-0.00119,-162.1,,,,,,,
106.34,-0.00122,-163.9,,,,,,,
106.37,-0.00124,-165.3,,,,,,,
106.37,-0.00126,-166.1,,,,,,,
106.4,-0.00127,-166.7,,,,,,,
106.4,-0.00129,-167.8,,,,,,,
106.43,-0.00132,-168.6,,,,,,,
106.46,-0.00135,-168.7,,,,,,,
106.5,-0.00136,-168.2,,,,,,,
106.5,-0.00137,-168.0,,,,,,,
106.56,-0.0014,-164.5,,,,,,,
106.59,-0.0014,-161.0,,,,,,,
106.65,-0.00137,-149.8,,,,,,,
106.68,-0.00136,-145.4,,,,,,,
106.68,-0.00135,-142.9,,,,,,,
106.71,-0.00132,-137.3,,,,,,,
106.75,-0.00129,-132.2,,,,,,,
106.78,-0.00127,-127.4,,,,,,,
106.78,-0.00127,-127.2,,,,,,,
106.81,-0.00124,-122.8,,,,,,,
106.84,-0.00122,-118.3,,,,,,,
106.84,-0.00119,-114.3,,,,,,,
106.87,-0.00117,-109.9,,,,,,,
106.87,-0.00116,-109.3,,,,,,,
106.9,-0.00114,-105.4,,,,,,,
106.93,-0.00112,-101.3,,,,,,,
106.96,-0.00109,-97.46,,,,,,,
106.96,-0.00106,-93.48,,,,,,,
107.0,-0.00106,-92.94,,,,,,,
107.0,-0.00104,-89.26,,,,,,,
107.03,-0.00101,-85.69,,,,,,,
107.06,-0.00099,-81.72,,,,,,,
107.09,-0.00096,-78.1,,,,,,,
107.09,-0.00096,-78.11,,,,,,,
107.12,-0.00094,-73.73,,,,,,,
107.15,-0.00091,-70.13,,,,,,,
107.15,-0.00089,-66.63,,,,,,,
107.18,-0.00087,-64.04,,,,,,,
107.18,-0.00086,-62.43,,,,,,,
107.21,-0.00084,-59.14,,,,,,,
107.25,-0.00081,-55.33,,,,,,,
107.28,-0.00078,-52.18,,,,,,,
107.28,-0.00078,-51.15,,,,,,,
107.31,-0.00076,-47.93,,,,,,,
107.34,-0.00073,-44.06,,,,,,,
107.37,-0.00071,-40.28,,,,,,,
107.37,-0.00069,-38.64,,,,,,,
107.4,-0.00068,-37.06,,,,,,,
107.43,-0.00066,-33.18,,,,,,,
107.46,-0.00063,-30.08,,,,,,,
107.5,-0.00061,-26.47,,,,,,,
107.5,-0.00058,-22.56,,,,,,,
107.53,-0.00055,-19.42,,,,,,,
107.56,-0.00053,-16.14,,,,,,,
107.59,-0.00052,-14.7,,,,,,,
107.59,-0.0005,-12.38,,,,,,,
107.62,-0.00048,-8.51,,,,,,,
107.65,-0.00045,-5.63,,,,,,,
107.68,-0.00043,-3.05,,,,,,,
107.68,-0.00042,-2.87,,,,,,,
107.71,-0.0004,0.96,,,,,,,
107.75,-0.00038,4.35,,,,,,,
107.78,-0.00035,8.52,,,,,,,
107.78,-0.00035,8.95,,,,,,,
107.81,-0.00033,11.55,,,,,,,
107.84,-0.0003,14.58,,,,,,,
107.87,-0.00027,17.92,,,,,,,
107.87,-0.00026,20.6,,,,,,,
107.87,-0.00025,21.12,,,,,,,
107.9,-0.00022,24.27,,,,,,,
107.93,-0.0002,27.8,,,,,,,
107.96,-0.00017,30.49,,,,,,,
107.96,-0.00017,31.12,,,,,,,
108.0,-0.00015,33.57,,,,,,,
108.06,-0.00012,35.89,,,,,,,
108.09,-0.0001,37.97,,,,,,,
108.09,-0.0001,38.08,,,,,,,
108.12,-7e-05,40.71,,,,,,,
108.18,-5e-05,42.94,,,,,,,
108.18,-5e-05,43.39,,,,,,,
108.21,-2e-05,46.38,,,,,,,
108.28,0.0,50.5,,,,,,,
108.28,1e-05,51.43,,,,,,,
108.31,3e-05,53.53,,,,,,,
108.31,6e-05,56.12,,,,,,,
108.34,8e-05,59.55,,,,,,,
108.37,0.0001,62.39,,,,,,,
108.37,0.00011,63.05,,,,,,,
108.4,0.00013,65.98,,,,,,,
108.43,0.00016,68.77,,,,,,,
108.43,0.00018,71.43,,,,,,,
108.46,0.00021,74.18,,,,,,,
108.46,0.00021,74.73,,,,,,,
108.5,0.00023,76.53,,,,,,,
108.53,0.00026,79.74,,,,,,,
108.56,0.00028,82.09,,,,,,,
108.59,0.00031,85.11,,,,,,,
108.59,0.00031,84.91,,,,,,,
108.59,0.00033,87.01,,,,,,,
108.62,0.00036,89.53,,,,,,,
108.65,0.00039,91.08,,,,,,,
108.68,0.0004,93.39,,,,,,,
108.68,0.00041,94.37,,,,,,,
108.71,0.00044,97.22,,,,,,,
108.75,0.00046,98.66,,,,,,,
108.78,0.00048,101.0,,,,,,,
108.78,0.00049,101.53,,,,,,,
108.81,0.00051,103.65,,,,,,,
108.84,0.00054,106.13,,,,,,,
108.87,0.00056,108.52,,,,,,,
108.87,0.00057,108.94,,,,,,,
108.9,0.00059,111.0,,,,,,,
108.93,0.00061,113.33,,,,,,,
108.96,0.00064,116.12,,,,,,,
108.96,0.00065,118.25,,,,,,,
109.0,0.00067,119.33,,,,,,,
109.0,0.00069,122.08,,,,,,,
109.03,0.00072,124.98,,,,,,,
109.06,0.00074,128.11,,,,,,,
109.06,0.00077,130.69,,,,,,,
109.06,0.00078,131.51,,,,,,,
109.09,0.0008,133.12,,,,,,,
109.09,0.00082,135.77,,,,,,,
109.12,0.00085,138.99,,,,,,,
109.15,0.00087,141.35,,,,,,,
109.15,0.0009,143.72,,,,,,,
109.18,0.00092,145.62,,,,,,,
109.18,0.00092,145.96,,,,,,,
109.18,0.00095,148.55,,,,,,,
109.21,0.00098,150.69,,,,,,,
109.21,0.001,152.81,,,,,,,
109.25,0.00103,154.81,,,,,,,
109.25,0.00105,157.01,,,,,,,
109.28,0.00107,158.1,,,,,,,
109.28,0.00108,158.92,,,,,,,
109.31,0.0011,160.39,,,,,,,
109.31,0.00113,162.27,,,,,,,
109.34,0.00115,164.46,,,,,,,
109.34,0.00118,166.25,,,,,,,
283.75,0.00138,168.91,,,,,,,
283.78,0.0014,169.54,,,,,,,
283.78,0.00142,169.44,,,,,,,
283.81,0.00143,169.34,,,,,,,
283.81,0.00146,168.75,,,,,,,
283.87,0.00148,164.87,,,,,,,
283.9,0.00148,162.64,,,,,,,
283.96,0.00146,149.68,,,,,,,
284.0,0.00143,142.89,,,,,,,
284.0,0.00143,142.21,,,,,,,
284.0,0.0014,138.56,,,,,,,
284.03,0.00138,133.75,,,,,,,
284.06,0.00135,127.89,,,,,,,
284.06,0.00133,123.39,,,,,,,
284.09,0.0013,119.84,,,,,,,
284.09,0.00129,118.78,,,,,,,
284.09,0.00128,115.9,,,,,,,
284.12,0.00125,112.1,,,,,,,
284.12,0.00123,108.38,,,,,,,
284.15,0.0012,103.54,,,,,,,
284.18,0.00117,100.68,,,,,,,
284.18,0.00116,99.29,,,,,,,
284.18,0.00115,97.66,,,,,,,
284.21,0.00112,93.73,,,,,,,
284.25,0.0011,89.99,,,,,,,
284.28,0.00107,86.57,,,,,,,
284.28,0.00106,84.17,,,,,,,
284.31,0.00105,82.32,,,,,,,
284.31,0.00102,79.7,,,,,,,
284.34,0.001,75.85,,,,,,,
284.37,0.00097,71.59,,,,,,,
284.37,0.00097,71.14,,,,,,,
284.4,0.00095,68.25,,,,,,,
284.43,0.00092,65.1,,,,,,,
284.46,0.0009,61.25,,,,,,,
284.5,0.00088,58.66,,,,,,,
284.5,0.00087,57.67,,,,,,,
284.53,0.00084,54.18,,,,,,,
284.56,0.00082,50.91,,,,,,,
284.59,0.00079,46.9,,,,,,,
284.59,0.00079,46.37,,,,,,,
284.62,0.00077,43.9,,,,,,,
284.62,0.00074,40.58,,,,,,,
284.65,0.00072,36.97,,,,,,,
284.68,0.0007,34.13,,,,,,,
284.68,0.00069,33.77,,,,,,,
284.71,0.00067,30.17,,,,,,,
284.75,0.00064,27.08,,,,,,,
284.78,0.00062,23.4,,,,,,,
284.78,0.00061,22.33,,,,,,,
284.81,0.00059,19.39,,,,,,,
284.84,0.00056,16.52,,,,,,,
284.87,0.00054,13.03,,,,,,,
284.87,0.00052,10.51,,,,,,,
284.9,0.00051,9.92,,,,,,,
284.9,0.00049,6.85,,,,,,,
284.93,0.00046,2.99,,,,,,,
284.96,0.00044,-0.38,,,,,,,
285.0,0.00043,-1.09,,,,,,,
285.0,0.00041,-3.74,,,,,,,
285.03,0.00039,-6.79,,,,,,,
285.06,0.00036,-9.61,,,,,,,
285.09,0.00034,-12.3,,,,,,,
285.09,0.00033,-12.46,,,,,,,
285.15,0.00031,-16.76,,,,,,,
285.18,0.00028,-18.29,,,,,,,
285.18,0.00028,-19.19,,,,,,,
285.21,0.00026,-21.45,,,,,,,
285.28,0.00023,-23.63,,,,,,,
285.28,0.00023,-24.54,,,,,,,
285.31,0.00021,-27.51,,,,,,,
285.34,0.00018,-31.66,,,,,,,
285.37,0.00016,-34.99,,,,,,,
285.37,0.00014,-36.63,,,,,,,
285.4,0.00013,-38.07,,,,,,,
285.4,0.00011,-41.08,,,,,,,
285.43,8e-05,-45.29,,,,,,,
285.46,5e-05,-47.92,,,,,,,
285.46,3e-05,-50.53,,,,,,,
285.5,3e-05,-51.15,,,,,,,
285.5,0.0,-53.45,,,,,,,
285.53,-2e-05,-55.92,,,,,,,
285.56,-5e-05,-58.9,,,,,,,
285.59,-7e-05,-61.21,,,,,,,
285.59,-8e-05,-61.43,,,,,,,
285.62,-0.0001,-63.75,,,,,,,
285.62,-0.00012,-65.87,,,,,,,
285.68,-0.00015,-68.59,,,,,,,
285.68,-0.00016,-69.37,,,,,,,
285.71,-0.00017,-71.37,,,,,,,
285.75,-0.0002,-73.91,,,,,,,
285.78,-0.00022,-76.35,,,,,,,
285.78,-0.00024,-77.61,,,,,,,
285.81,-0.00025,-79.36,,,,,,,
285.84,-0.00028,-81.99,,,,,,,
285.87,-0.0003,-84.85,,,,,,,
285.87,-0.00032,-86.91,,,,,,,
285.9,-0.00033,-87.86,,,,,,,
285.93,-0.00035,-90.86,,,,,,,
285.93,-0.00038,-94.24,,,,,,,
285.96,-0.0004,-97.48,,,,,,,
286.0,-0.00042,-99.97,,,,,,,
286.0,-0.00043,-100.8,,,,,,,
286.0,-0.00046,-104.1,,,,,,,
286.03,-0.00048,-106.9,,,,,,,
286.03,-0.00051,-109.9,,,,,,,
286.06,-0.00053,-112.9,,,,,,,
286.06,-0.00056,-115.6,,,,,,,
286.09,-0.00057,-116.8,,,,,,,
286.09,-0.00058,-118.3,,,,,,,
286.12,-0.00061,-121.1,,,,,,,
286.12,-0.00064,-123.8,,,,,,,
286.15,-0.00066,-125.8,,,,,,,
286.15,-0.00069,-128.7,,,,,,,
286.18,-0.00071,-130.7,,,,,,,
286.18,-0.00073,-132.0,,,,,,,
286.18,-0.00074,-133.2,,,,,,,
286.21,-0.00077,-135.7,,,,,,,
286.21,-0.00079,-137.5,,,,,,,
286.25,-0.00082,-139.6,,,,,,,
286.25,-0.00084,-141.7,,,,,,,
286.28,-0.00087,-143.3,,,,,,,
286.28,-0.00087,-143.6,,,,,,,
286.31,-0.00089,-145.5,,,,,,,
286.31,-0.00092,-147.0,,,,,,,
286.34,-0.00095,-148.4,,,,,,,
286.37,-0.00097,-150.2,,,,,,,
286.37,-0.00099,-151.3,,,,,,,
286.37,-0.001,-151.6,,,,,,,
286.4,-0.00102,-153.0,,,,,,,
286.43,-0.00105,-154.6,,,,,,,
286.46,-0.00107,-155.5,,,,,,,
286.46,-0.0011,-156.7,,,,,,,
286.5,-0.0011,-157.1,,,,,,,
286.5,-0.00112,-158.4,,,,,,,
286.53,-0.00115,-159.6,,,,,,,
286.56,-0.00117,-160.9,,,,,,,
286.59,-0.0012,-161.8,,,,,,,
286.59,-0.0012,-161.9,,,,,,,
286.62,-0.00123,-162.9,,,,,,,
286.62,-0.00125,-164.3,,,,,,,
286.65,-0.00128,-165.4,,,,,,,
286.68,-0.0013,-166.2,,,,,,,
286.68,-0.0013,-166.5,,,,,,,
286.71,-0.00133,-167.6,,,,,,,
286.75,-0.00135,-168.6,,,,,,,
286.75,-0.00138,-169.4,,,,,,,
286.78,-0.0014,-170.3,,,,,,,
286.78,-0.0014,-170.3,,,,,,,
286.81,-0.00143,-170.6,,,,,,,
286.84,-0.00146,-170.1,,,,,,,
286.87,-0.00148,-168.1,,,,,,,
286.87,-0.00148,-166.6,,,,,,,
286.96,-0.00146,-148.7,,,,,,,
286.96,-0.00145,-147.5,,,,,,,
287.0,-0.00143,-142.4,,,,,,,
287.03,-0.0014,-137.3,,,,,,,
287.03,-0.00138,-132.5,,,,,,,
287.06,-0.00135,-127.3,,,,,,,
287.09,-0.00133,-122.7,,,,,,,
287.09,-0.00133,-122.4,,,,,,,
287.09,-0.0013,-118.0,,,,,,,
287.12,-0.00128,-114.3,,,,,,,
287.12,-0.00125,-110.4,,,,,,,
287.15,-0.00122,-106.4,,,,,,,
287.18,-0.0012,-102.2,,,,,,,
287.18,-0.00119,-100.8,,,,,,,
287.18,-0.00117,-98.12,,,,,,,
287.21,-0.00115,-93.8,,,,,,,
287.25,-0.00112,-89.9,,,,,,,
287.25,-0.0011,-86.81,,,,,,,
287.28,-0.00107,-83.68,,,,,,,
287.28,-0.00107,-82.75,,,,,,,
287.31,-0.00104,-79.26,,,,,,,
287.34,-0.00102,-75.48,,,,,,,
287.37,-0.00099,-71.75,,,,,,,
287.37,-0.00098,-69.74,,,,,,,
287.4,-0.00097,-67.88,,,,,,,
287.43,-0.00094,-64.1,,,,,,,
287.43,-0.00092,-60.22,,,,,,,
287.46,-0.00089,-56.55,,,,,,,
287.46,-0.00089,-56.58,,,,,,,
287.5,-0.00087,-52.57,,,,,,,
287.53,-0.00084,-49.02,,,,,,,
287.56,-0.00082,-44.89,,,,,,,
287.56,-0.00081,-43.45,,,,,,,
287.59,-0.00079,-41.5,,,,,,,
287.62,-0.00076,-37.3,,,,,,,
287.65,-0.00074,-34.12,,,,,,,
287.68,-0.00071,-30.94,,,,,,,
287.68,-0.00071,-30.63,,,,,,,
287.71,-0.00069,-27.04,,,,,,,
287.75,-0.00066,-23.22,,,,,,,
287.75,-0.00064,-20.4,,,,,,,
287.78,-0.00062,-17.99,,,,,,,
287.78,-0.00061,-16.97,,,,,,,
287.81,-0.00059,-14.03,,,,,,,
287.84,-0.00056,-11.62,,,,,,,
287.87,-0.00054,-6.92,,,,,,,
287.87,-0.00053,-6.14,,,,,,,
287.9,-0.00051,-3.16,,,,,,,
287.93,-0.00049,0.29,,,,,,,
287.96,-0.00046,3.31,,,,,,,
287.96,-0.00044,5.58,,,,,,,
288.0,-0.00043,6.6,,,,,,,
288.0,-0.00041,9.92,,,,,,,
288.03,-0.00038,13.28,,,,,,,
288.06,-0.00036,16.33,,,,,,,
288.06,-0.00035,17.57,,,,,,,
288.09,-0.00033,19.76,,,,,,,
288.12,-0.00031,22.99,,,,,,,
288.15,-0.00028,25.99,,,,,,,
288.18,-0.00026,28.72,,,,,,,
288.18,-0.00025,29.19,,,,,,,
288.18,-0.00023,31.55,,,,,,,
288.21,-0.00021,33.94,,,,,,,
288.25,-0.00018,36.31,,,,,,,
288.28,-0.00017,37.15,,,,,,,
288.31,-0.00015,39.06,,,,,,,
288.34,-0.00013,41.11,,,,,,,
288.37,-0.00012,42.56,,,,,,,
288.4,-0.0001,43.76,,,,,,,
288.43,-8e-05,46.9,,,,,,,
288.46,-6e-05,50.6,,,,,,,
288.46,-5e-05,50.94,,,,,,,
288.5,-3e-05,54.09,,,,,,,
288.53,-0.0,57.16,,,,,,,
288.56,2e-05,59.77,,,,,,,
288.56,5e-05,63.07,,,,,,,
288.59,7e-05,65.79,,,,,,,
288.62,0.0001,68.55,,,,,,,
288.62,0.00013,71.34,,,,,,,
288.65,0.00015,73.86,,,,,,,
288.68,0.00017,75.51,,,,,,,
288.68,0.00018,76.8,,,,,,,
288.71,0.0002,79.33,,,,,,,
288.71,0.00023,81.65,,,,,,,
288.75,0.00025,84.06,,,,,,,
288.78,0.00026,84.93,,,,,,,
288.78,0.00028,86.21,,,,,,,
288.81,0.0003,88.28,,,,,,,
288.84,0.00033,90.3,,,,,,,
288.87,0.00035,92.6,,,,,,,
288.87,0.00036,92.68,,,,,,,
288.9,0.00038,94.97,,,,,,,
288.93,0.00041,96.85,,,,,,,
288.96,0.00043,99.36,,,,,,,
288.96,0.00044,99.73,,,,,,,
289.0,0.00046,101.36,,,,,,,
289.03,0.00048,103.92,,,,,,,
289.06,0.00051,106.6,,,,,,,
289.06,0.00052,107.61,,,,,,,
289.09,0.00053,108.84,,,,,,,
289.12,0.00056,111.09,,,,,,,
289.12,0.00058,113.77,,,,,,,
289.15,0.00061,116.58,,,,,,,
289.18,0.00062,116.93,,,,,,,
289.18,0.00063,118.99,,,,,,,
289.21,0.00066,121.91,,,,,,,
289.25,0.00069,124.75,,,,,,,
289.25,0.00071,127.35,,,,,,,
289.28,0.00073,129.75,,,,,,,
289.28,0.00074,130.18,,,,,,,
289.28,0.00076,133.03,,,,,,,
289.31,0.00079,135.21,,,,,,,
289.31,0.00081,137.41,,,,,,,
289.34,0.00084,139.58,,,,,,,
289.37,0.00087,141.74,,,,,,,
289.37,0.00088,143.14,,,,,,,
289.37,0.00089,144.19,,,,,,,
289.4,0.00092,146.6,,,,,,,
289.4,0.00094,148.78,,,,,,,
289.43,0.00097,150.56,,,,,,,
289.43,0.00099,152.14,,,,,,,
289.46,0.00102,154.11,,,,,,,
289.46,0.00102,154.17,,,,,,,
289.5,0.00104,155.92,,,,,,,
289.5,0.00107,157.8,,,,,,,
289.53,0.0011,159.29,,,,,,,
289.56,0.00112,160.64,,,,,,,
289.56,0.00115,162.27,,,,,,,
289.59,0.00117,163.29,,,,,,,
289.59,0.0012,164.76,,,,,,,
289.62,0.00122,165.66,,,,,,,
289.65,0.00125,166.66,,,,,,,
289.65,0.00127,167.32,,,,,,,
289.68,0.00128,167.33,,,,,,,
289.68,0.0013,168.16,,,,,,,
289.71,0.00133,168.98,,,,,,,
289.75,0.00135,169.57,,,,,,,
584.4,0.00141,161.73,,,,,,,
584.4,0.00142,161.86,,,,,,,
584.43,0.00143,162.05,,,,,,,
584.43,0.00146,161.75,,,,,,,
584.5,0.00149,159.31,,,,,,,
584.5,0.00149,157.04,,,,,,,
584.59,0.00146,142.29,,,,,,,
584.62,0.00144,137.43,,,,,,,
584.62,0.00143,136.91,,,,,,,
584.62,0.00141,131.79,,,,,,,
584.65,0.00138,124.18,,,,,,,
584.68,0.00136,120.55,,,,,,,
584.68,0.00133,117.41,,,,,,,
584.71,0.00131,113.74,,,,,,,
584.71,0.0013,113.5,,,,,,,
584.71,0.00128,109.82,,,,,,,
584.75,0.00125,104.6,,,,,,,
584.78,0.00123,100.55,,,,,,,
584.78,0.0012,97.08,,,,,,,
584.81,0.00118,93.68,,,,,,,
584.81,0.00117,93.34,,,,,,,
584.84,0.00115,89.83,,,,,,,
584.84,0.00113,86.09,,,,,,,
584.87,0.0011,82.61,,,,,,,
584.9,0.00108,78.84,,,,,,,
584.9,0.00107,78.18,,,,,,,
584.93,0.00105,74.94,,,,,,,
584.96,0.00103,70.95,,,,,,,
585.0,0.001,67.27,,,,,,,
585.0,0.00099,65.06,,,,,,,
585.03,0.00097,63.03,,,,,,,
585.06,0.00095,59.63,,,,,,,
585.09,0.00092,55.91,,,,,,,
585.12,0.0009,52.0,,,,,,,
585.12,0.0009,51.66,,,,,,,
585.12,0.00087,48.54,,,,,,,
585.15,0.00085,44.64,,,,,,,
585.18,0.00082,40.96,,,,,,,
585.21,0.00081,38.69,,,,,,,
585.21,0.0008,37.34,,,,,,,
585.25,0.00077,33.9,,,,,,,
585.28,0.00075,30.31,,,,,,,
585.31,0.00072,26.52,,,,,,,
585.31,0.00072,25.93,,,,,,,
585.34,0.00069,23.17,,,,,,,
585.37,0.00067,19.52,,,,,,,
585.37,0.00064,16.09,,,,,,,
585.4,0.00063,13.46,,,,,,,
585.4,0.00062,12.34,,,,,,,
585.46,0.00059,8.22,,,,,,,
585.46,0.00057,4.94,,,,,,,
585.5,0.00054,2.21,,,,,,,
585.5,0.00053,1.03,,,,,,,
585.53,0.00052,-0.76,,,,,,,
585.56,0.00049,-6.1,,,,,,,
585.59,0.00047,-8.23,,,,,,,
585.62,0.00044,-10.99,,,,,,,
585.62,0.00044,-11.05,,,,,,,
585.62,0.00042,-14.36,,,,,,,
585.65,0.00039,-17.01,,,,,,,
585.71,0.00037,-18.6,,,,,,,
585.71,0.00036,-19.17,,,,,,,
585.75,0.00034,-21.31,,,,,,,
585.81,0.00032,-23.71,,,,,,,
585.81,0.00031,-24.25,,,,,,,
585.87,0.00029,-28.25,,,,,,,
585.9,0.00026,-32.59,,,,,,,
585.9,0.00025,-34.1,,,,,,,
585.93,0.00024,-36.22,,,,,,,
585.93,0.00021,-39.61,,,,,,,
585.96,0.00019,-42.77,,,,,,,
585.96,0.00016,-46.19,,,,,,,
586.0,0.00014,-48.9,,,,,,,
586.0,0.00013,-49.97,,,,,,,
586.03,0.00011,-51.7,,,,,,,
586.03,8e-05,-54.73,,,,,,,
586.06,6e-05,-57.26,,,,,,,
586.09,3e-05,-59.64,,,,,,,
586.09,2e-05,-61.25,,,,,,,
586.12,1e-05,-62.05,,,,,,,
586.15,-2e-05,-64.4,,,,,,,
586.18,-4e-05,-67.03,,,,,,,
586.21,-7e-05,-69.18,,,,,,,
586.21,-7e-05,-69.37,,,,,,,
586.25,-9e-05,-72.32,,,,,,,
586.28,-0.00012,-74.96,,,,,,,
586.31,-0.00014,-77.28,,,,,,,
586.34,-0.00017,-80.01,,,,,,,
586.37,-0.0002,-82.78,,,,,,,
586.4,-0.00022,-85.52,,,,,,,
586.4,-0.00023,-86.62,,,,,,,
586.43,-0.00025,-88.37,,,,,,,
586.43,-0.00027,-91.32,,,,,,,
586.46,-0.0003,-94.56,,,,,,,
586.5,-0.00032,-97.21,,,,,,,
586.5,-0.00034,-98.99,,,,,,,
586.5,-0.00035,-100.5,,,,,,,
586.53,-0.00037,-103.8,,,,,,,
586.56,-0.0004,-106.6,,,,,,,
586.56,-0.00043,-109.4,,,,,,,
586.59,-0.00045,-112.3,,,,,,,
586.59,-0.00048,-115.1,,,,,,,
586.59,-0.00048,-115.6,,,,,,,
586.62,-0.0005,-117.8,,,,,,,
586.62,-0.00053,-120.2,,,,,,,
586.65,-0.00056,-122.7,,,,,,,
586.65,-0.00058,-125.3,,,,,,,
586.68,-0.00061,-127.8,,,,,,,
586.68,-0.00063,-130.0,,,,,,,
586.71,-0.00064,-130.3,,,,,,,
586.71,-0.00066,-132.4,,,,,,,
586.75,-0.00068,-134.4,,,,,,,
586.75,-0.00071,-136.6,,,,,,,
586.78,-0.00074,-138.3,,,,,,,
586.78,-0.00076,-140.5,,,,,,,
586.81,-0.00077,-141.1,,,,,,,
586.81,-0.00079,-142.6,,,,,,,
586.84,-0.00081,-144.1,,,,,,,
586.84,-0.00084,-145.7,,,,,,,
586.87,-0.00086,-147.8,,,,,,,
586.9,-0.00089,-149.0,,,,,,,
586.9,-0.00089,-149.2,,,,,,,
586.93,-0.00092,-151.1,,,,,,,
586.93,-0.00094,-152.5,,,,,,,
586.96,-0.00097,-153.7,,,,,,,
587.0,-0.00099,-155.4,,,,,,,
587.0,-0.00099,-155.2,,,,,,,
587.03,-0.00102,-156.9,,,,,,,
587.06,-0.00104,-158.2,,,,,,,
587.06,-0.00107,-159.2,,,,,,,
587.09,-0.00109,-160.6,,,,,,,
587.09,-0.0011,-160.7,,,,,,,
587.12,-0.00112,-161.7,,,,,,,
587.15,-0.00114,-162.7,,,,,,,
587.15,-0.00117,-163.9,,,,,,,
587.18,-0.0012,-164.9,,,,,,,
587.18,-0.00121,-165.3,,,,,,,
587.21,-0.00122,-165.9,,,,,,,
587.25,-0.00125,-167.0,,,,,,,
587.25,-0.00127,-167.7,,,,,,,
587.28,-0.0013,-168.5,,,,,,,
587.31,-0.00131,-169.0,,,,,,,
587.31,-0.00133,-169.2,,,,,,,
587.34,-0.00135,-169.9,,,,,,,
587.37,-0.00138,-170.4,,,,,,,
587.37,-0.0014,-170.7,,,,,,,
587.4,-0.00142,-171.3,,,,,,,
587.4,-0.00143,-171.4,,,,,,,
587.43,-0.00145,-171.1,,,,,,,
587.46,-0.00148,-170.5,,,,,,,
587.5,-0.0015,-168.6,,,,,,,
587.5,-0.00151,-167.2,,,,,,,
587.59,-0.00148,-148.5,,,,,,,
587.59,-0.00147,-146.6,,,,,,,
587.62,-0.00145,-142.6,,,,,,,
587.62,-0.00143,-137.6,,,,,,,
587.65,-0.0014,-132.6,,,,,,,
587.65,-0.00137,-128.5,,,,,,,
587.68,-0.00135,-124.2,,,,,,,
587.68,-0.00133,-120.3,,,,,,,
587.68,-0.00132,-119.7,,,,,,,
587.71,-0.0013,-115.8,,,,,,,
587.75,-0.00127,-111.3,,,,,,,
587.75,-0.00124,-107.9,,,,,,,
587.78,-0.00122,-103.4,,,,,,,
587.78,-0.00119,-99.75,,,,,,,
587.81,-0.00119,-99.14,,,,,,,
587.81,-0.00117,-96.45,,,,,,,
587.84,-0.00114,-92.45,,,,,,,
587.87,-0.00112,-89.41,,,,,,,
587.87,-0.00109,-85.29,,,,,,,
587.9,-0.00108,-83.57,,,,,,,
587.9,-0.00107,-81.32,,,,,,,
587.93,-0.00104,-77.59,,,,,,,
587.96,-0.00101,-73.77,,,,,,,
588.0,-0.00099,-70.34,,,,,,,
588.0,-0.00099,-70.26,,,,,,,
588.03,-0.00096,-66.27,,,,,,,
588.06,-0.00094,-62.65,,,,,,,
588.09,-0.00091,-59.49,,,,,,,
588.09,-0.0009,-57.35,,,,,,,
588.12,-0.00089,-55.66,,,,,,,
588.15,-0.00086,-51.91,,,,,,,
588.15,-0.00084,-48.4,,,,,,,
588.18,-0.00081,-44.71,,,,,,,
588.18,-0.00081,-44.27,,,,,,,
588.25,-0.00078,-40.31,,,,,,,
588.25,-0.00076,-36.79,,,,,,,
588.28,-0.00073,-34.2,,,,,,,
588.31,-0.00072,-31.93,,,,,,,
588.31,-0.00071,-30.8,,,,,,,
588.34,-0.00068,-26.98,,,,,,,
588.37,-0.00066,-23.33,,,,,,,
588.4,-0.00063,-20.12,,,,,,,
588.4,-0.00063,-19.31,,,,,,,
588.4,-0.00061,-16.89,,,,,,,
588.43,-0.00058,-13.52,,,,,,,
588.46,-0.00056,-9.92,,,,,,,
588.5,-0.00054,-7.28,,,,,,,
588.5,-0.00053,-6.56,,,,,,,
588.53,-0.00051,-3.46,,,,,,,
588.56,-0.00048,-0.28,,,,,,,
588.59,-0.00045,2.85,,,,,,,
588.59,-0.00044,4.62,,,,,,,
588.59,-0.00043,6.02,,,,,,,
588.62,-0.0004,9.25,,,,,,,
588.65,-0.00038,12.32,,,,,,,
588.68,-0.00035,15.27,,,,,,,
588.68,-0.00035,16.24,,,,,,,
588.71,-0.00033,18.54,,,,,,,
588.75,-0.0003,22.22,,,,,,,
588.78,-0.00028,25.74,,,,,,,
588.81,-0.00026,27.42,,,,,,,
588.81,-0.00025,28.94,,,,,,,
588.84,-0.00023,32.03,,,,,,,
588.87,-0.0002,34.46,,,,,,,
588.9,-0.00018,36.91,,,,,,,
588.9,-0.00017,36.74,,,,,,,
588.93,-0.00015,39.16,,,,,,,
588.96,-0.00012,42.04,,,,,,,
589.0,-0.00012,42.99,,,,,,,
589.03,-0.0001,44.32,,,,,,,
589.06,-7e-05,48.12,,,,,,,
589.09,-6e-05,50.4,,,,,,,
589.12,-5e-05,51.99,,,,,,,
589.12,-2e-05,55.52,,,,,,,
589.15,0.0,58.41,,,,,,,
589.18,3e-05,61.03,,,,,,,
589.18,5e-05,63.69,,,,,,,
589.18,6e-05,64.11,,,,,,,
589.21,8e-05,67.61,,,,,,,
589.25,0.00011,70.09,,,,,,,
589.25,0.00013,72.39,,,,,,,
589.28,0.00016,75.32,,,,,,,
589.28,0.00018,76.93,,,,,,,
589.31,0.00018,77.52,,,,,,,
589.31,0.00021,80.04,,,,,,,
589.34,0.00023,82.23,,,,,,,
589.37,0.00026,83.97,,,,,,,
589.4,0.00028,85.78,,,,,,,
589.4,0.00028,86.28,,,,,,,
589.43,0.00031,88.04,,,,,,,
589.43,0.00034,89.32,,,,,,,
589.5,0.00036,92.11,,,,,,,
589.5,0.00036,92.37,,,,,,,
589.53,0.00039,94.38,,,,,,,
589.53,0.00041,95.57,,,,,,,
589.59,0.00044,98.73,,,,,,,
589.59,0.00044,99.3,,,,,,,
589.62,0.00046,100.89,,,,,,,
589.65,0.00049,102.88,,,,,,,
589.65,0.00051,105.26,,,,,,,
589.68,0.00054,107.08,,,,,,,
589.68,0.00054,107.34,,,,,,,
589.71,0.00057,108.59,,,,,,,
589.75,0.00059,111.42,,,,,,,
589.78,0.00062,113.18,,,,,,,
589.78,0.00064,115.34,,,,,,,
589.78,0.00064,115.55,,,,,,,
589.81,0.00067,117.83,,,,,,,
589.84,0.00069,120.25,,,,,,,
589.84,0.00072,122.73,,,,,,,
589.87,0.00074,125.04,,,,,,,
589.9,0.00076,126.67,,,,,,,
589.9,0.00077,127.42,,,,,,,
589.9,0.0008,129.71,,,,,,,
589.93,0.00082,132.05,,,,,,,
589.93,0.00085,134.23,,,,,,,
589.96,0.00087,136.37,,,,,,,
590.0,0.0009,138.37,,,,,,,
590.0,0.00091,138.44,,,,,,,
590.0,0.00093,140.14,,,,,,,
590.03,0.00095,141.67,,,,,,,
590.03,0.00098,143.61,,,,,,,
590.06,0.001,144.98,,,,,,,
590.09,0.00103,147.0,,,,,,,
590.09,0.00104,147.68,,,,,,,
590.09,0.00105,148.17,,,,,,,
590.12,0.00108,149.49,,,,,,,
590.12,0.00111,150.8,,,,,,,
590.15,0.00113,152.15,,,,,,,
590.18,0.00116,153.2,,,,,,,
590.18,0.00117,153.91,,,,,,,
590.18,0.00118,154.18,,,,,,,
590.21,0.00121,155.42,,,,,,,
590.25,0.00123,156.13,,,,,,,
590.28,0.00126,157.15,,,,,,,
590.28,0.00128,157.95,,,,,,,
590.28,0.00128,157.83,,,,,,,
590.31,0.00131,158.77,,,,,,,
590.34,0.00134,159.42,,,,,,,
590.37,0.00136,160.23,,,,,,,
590.37,0.00139,161.01,,,,,,,
1185.65,0.00139,167.63,,,,,,,
1185.68,0.00142,168.39,,,,,,,
1185.71,0.00145,168.27,,,,,,,
1185.75,0.00147,167.29,,,,,,,
1185.75,0.00148,166.11,,,,,,,
1185.84,0.00147,149.03,,,,,,,
1185.87,0.00144,143.46,,,,,,,
1185.9,0.00142,137.87,,,,,,,
1185.93,0.00139,132.72,,,,,,,
1185.93,0.00137,128.49,,,,,,,
1185.96,0.00135,124.58,,,,,,,
1185.96,0.00134,124.12,,,,,,,
1185.96,0.00132,120.2,,,,,,,
1186.0,0.00129,116.23,,,,,,,
1186.0,0.00127,112.04,,,,,,,
1186.03,0.00124,107.98,,,,,,,
1186.06,0.00121,104.19,,,,,,,
1186.06,0.00121,103.16,,,,,,,
1186.06,0.00119,100.56,,,,,,,
1186.09,0.00116,96.95,,,,,,,
1186.12,0.00114,92.88,,,,,,,
1186.12,0.00111,89.45,,,,,,,
1186.15,0.0011,87.24,,,,,,,
1186.15,0.00109,85.62,,,,,,,
1186.18,0.00106,81.58,,,,,,,
1186.21,0.00104,77.66,,,,,,,
1186.25,0.00101,73.76,,,,,,,
1186.25,0.00101,73.69,,,,,,,
1186.28,0.00098,69.33,,,,,,,
1186.31,0.00096,66.84,,,,,,,
1186.31,0.00093,64.64,,,,,,,
1186.34,0.00091,61.27,,,,,,,
1186.34,0.00091,60.73,,,,,,,
1186.37,0.00088,57.21,,,,,,,
1186.4,0.00086,54.16,,,,,,,
1186.43,0.00083,50.67,,,,,,,
1186.43,0.00082,48.86,,,,,,,
1186.46,0.00081,47.16,,,,,,,
1186.5,0.00078,43.96,,,,,,,
1186.53,0.00076,40.42,,,,,,,
1186.56,0.00073,37.46,,,,,,,
1186.56,0.00073,36.89,,,,,,,
1186.56,0.00071,34.13,,,,,,,
1186.59,0.00068,30.55,,,,,,,
1186.62,0.00065,27.16,,,,,,,
1186.65,0.00064,25.07,,,,,,,
1186.65,0.00063,24.11,,,,,,,
1186.68,0.0006,20.94,,,,,,,
1186.71,0.00058,17.91,,,,,,,
1186.75,0.00055,14.08,,,,,,,
1186.75,0.00055,13.27,,,,,,,
1186.78,0.00053,11.04,,,,,,,
1186.81,0.0005,8.0,,,,,,,
1186.84,0.00048,4.36,,,,,,,
1186.84,0.00045,1.86,,,,,,,
1186.84,0.00045,1.48,,,,,,,
1186.87,0.00043,-1.54,,,,,,,
1186.9,0.0004,-4.72,,,,,,,
1186.93,0.00037,-8.4,,,,,,,
1186.93,0.00037,-9.11,,,,,,,
1186.96,0.00035,-11.25,,,,,,,
1187.0,0.00032,-14.16,,,,,,,
1187.03,0.0003,-16.32,,,,,,,
1187.06,0.00028,-17.61,,,,,,,
1187.06,0.00027,-17.87,,,,,,,
1187.12,0.00025,-20.24,,,,,,,
1187.15,0.00023,-21.86,,,,,,,
1187.15,0.00022,-22.56,,,,,,,
1187.21,0.0002,-26.47,,,,,,,
1187.25,0.00017,-30.32,,,,,,,
1187.25,0.00017,-30.22,,,,,,,
1187.28,0.00015,-34.04,,,,,,,
1187.28,0.00012,-37.3,,,,,,,
1187.31,9e-05,-40.4,,,,,,,
1187.34,7e-05,-43.29,,,,,,,
1187.34,5e-05,-45.78,,,,,,,
1187.34,4e-05,-46.33,,,,,,,
1187.37,2e-05,-49.15,,,,,,,
1187.4,-1e-05,-51.74,,,,,,,
1187.4,-3e-05,-54.04,,,,,,,
1187.43,-6e-05,-56.38,,,,,,,
1187.43,-6e-05,-57.3,,,,,,,
1187.46,-8e-05,-59.08,,,,,,,
1187.5,-0.00011,-61.17,,,,,,,
1187.53,-0.00013,-63.21,,,,,,,
1187.56,-0.00015,-65.1,,,,,,,
1187.56,-0.00016,-65.41,,,,,,,
1187.59,-0.00018,-68.01,,,,,,,
1187.62,-0.00021,-70.27,,,,,,,
1187.65,-0.00023,-72.28,,,,,,,
1187.65,-0.00023,-72.69,,,,,,,
1187.68,-0.00026,-75.19,,,,,,,
1187.71,-0.00029,-77.74,,,,,,,
1187.75,-0.00031,-80.13,,,,,,,
1187.75,-0.00032,-80.69,,,,,,,
1187.78,-0.00034,-82.38,,,,,,,
1187.78,-0.00036,-84.91,,,,,,,
1187.81,-0.00039,-87.78,,,,,,,
1187.84,-0.00041,-90.53,,,,,,,
1187.84,-0.00042,-90.74,,,,,,,
1187.87,-0.00044,-93.18,,,,,,,
1187.87,-0.00046,-96.44,,,,,,,
1187.9,-0.00049,-99.33,,,,,,,
1187.93,-0.00052,-102.1,,,,,,,
1187.93,-0.00054,-104.7,,,,,,,
1187.93,-0.00055,-105.7,,,,,,,
1187.96,-0.00057,-107.3,,,,,,,
1187.96,-0.00059,-109.9,,,,,,,
1188.0,-0.00062,-112.4,,,,,,,
1188.0,-0.00064,-114.9,,,,,,,
1188.03,-0.00067,-117.4,,,,,,,
1188.03,-0.00069,-119.7,,,,,,,
1188.06,-0.0007,-120.7,,,,,,,
1188.06,-0.00072,-122.1,,,,,,,
1188.06,-0.00075,-124.1,,,,,,,
1188.09,-0.00077,-126.2,,,,,,,
1188.12,-0.0008,-128.4,,,,,,,
1188.12,-0.00082,-130.3,,,,,,,
1188.15,-0.00085,-132.2,,,,,,,
1188.15,-0.00085,-132.2,,,,,,,
1188.15,-0.00087,-134.4,,,,,,,
1188.18,-0.0009,-136.0,,,,,,,
1188.21,-0.00093,-137.7,,,,,,,
1188.21,-0.00095,-139.2,,,,,,,
1188.25,-0.00096,-140.3,,,,,,,
1188.25,-0.00098,-141.2,,,,,,,
1188.28,-0.001,-142.6,,,,,,,
1188.31,-0.00103,-144.1,,,,,,,
1188.34,-0.00105,-145.8,,,,,,,
1188.34,-0.00107,-146.6,,,,,,,
1188.34,-0.00108,-147.4,,,,,,,
1188.37,-0.0011,-149.0,,,,,,,
1188.4,-0.00113,-150.4,,,,,,,
1188.43,-0.00115,-152.2,,,,,,,
1188.43,-0.00116,-152.6,,,,,,,
1188.46,-0.00118,-153.9,,,,,,,
1188.5,-0.00121,-155.4,,,,,,,
1188.5,-0.00123,-156.8,,,,,,,
1188.53,-0.00126,-158.4,,,,,,,
1188.53,-0.00126,-158.5,,,,,,,
1188.56,-0.00128,-159.8,,,,,,,
1188.59,-0.00131,-161.4,,,,,,,
1188.62,-0.00133,-162.9,,,,,,,
1188.62,-0.00136,-164.2,,,,,,,
1188.65,-0.00137,-164.4,,,,,,,
1188.65,-0.00138,-165.3,,,,,,,
1188.68,-0.00141,-166.4,,,,,,,
1188.71,-0.00143,-167.2,,,,,,,
1188.75,-0.00146,-167.1,,,,,,,
1188.75,-0.00147,-166.8,,,,,,,
1188.78,-0.00148,-165.6,,,,,,,
1188.84,-0.00148,-153.9,,,,,,,
1188.87,-0.00146,-148.4,,,,,,,
1188.87,-0.00143,-142.8,,,,,,,
1188.9,-0.00141,-137.9,,,,,,,
1188.93,-0.00138,-133.6,,,,,,,
1188.93,-0.00136,-129.4,,,,,,,
1188.96,-0.00133,-125.2,,,,,,,
1188.96,-0.00131,-120.6,,,,,,,
1189.0,-0.00128,-116.5,,,,,,,
1189.0,-0.00125,-112.5,,,,,,,
1189.03,-0.00123,-109.0,,,,,,,
1189.03,-0.00121,-106.6,,,,,,,
1189.06,-0.0012,-105.5,,,,,,,
1189.06,-0.00118,-101.5,,,,,,,
1189.09,-0.00115,-97.37,,,,,,,
1189.12,-0.00113,-93.72,,,,,,,
1189.15,-0.0011,-90.05,,,,,,,
1189.15,-0.0011,-89.78,,,,,,,
1189.18,-0.00107,-86.0,,,,,,,
1189.18,-0.00105,-82.45,,,,,,,
1189.21,-0.00102,-79.34,,,,,,,
1189.25,-0.00101,-76.3,,,,,,,
1189.25,-0.001,-74.15,,,,,,,
1189.28,-0.00097,-70.33,,,,,,,
1189.31,-0.00095,-66.8,,,,,,,
1189.34,-0.00093,-63.31,,,,,,,
1189.34,-0.00092,-61.88,,,,,,,
1189.37,-0.0009,-58.13,,,,,,,
1189.4,-0.00087,-55.02,,,,,,,
1189.43,-0.00085,-51.28,,,,,,,
1189.43,-0.00084,-49.9,,,,,,,
1189.46,-0.00082,-47.75,,,,,,,
1189.5,-0.00079,-43.83,,,,,,,
1189.53,-0.00077,-39.95,,,,,,,
1189.53,-0.00074,-36.7,,,,,,,
1189.53,-0.00074,-36.31,,,,,,,
1189.56,-0.00072,-32.9,,,,,,,
1189.59,-0.00069,-29.59,,,,,,,
1189.62,-0.00067,-26.02,,,,,,,
1189.62,-0.00065,-23.93,,,,,,,
1189.65,-0.00064,-22.68,,,,,,,
1189.68,-0.00062,-19.02,,,,,,,
1189.71,-0.00059,-15.71,,,,,,,
1189.71,-0.00056,-12.42,,,,,,,
1189.75,-0.00056,-11.45,,,,,,,
1189.75,-0.00054,-9.24,,,,,,,
1189.78,-0.00051,-5.91,,,,,,,
1189.81,-0.00049,-2.57,,,,,,,
1189.84,-0.00046,0.59,,,,,,,
1189.87,-0.00044,4.09,,,,,,,
1189.9,-0.00041,6.83,,,,,,,
1189.9,-0.00039,9.99,,,,,,,
1189.93,-0.00037,12.08,,,,,,,
1189.93,-0.00036,12.98,,,,,,,
1189.96,-0.00033,15.84,,,,,,,
1190.0,-0.00031,18.48,,,,,,,
1190.03,-0.00028,21.94,,,,,,,
1190.03,-0.00028,22.9,,,,,,,
1190.06,-0.00026,25.25,,,,,,,
1190.09,-0.00023,28.48,,,,,,,
1190.12,-0.00021,31.09,,,,,,,
1190.12,-0.00018,33.2,,,,,,,
1190.15,-0.00018,33.53,,,,,,,
1190.18,-0.00016,35.67,,,,,,,
1190.21,-0.00013,37.97,,,,,,,
1190.25,-0.00012,39.16,,,,,,,
1190.25,-0.00011,40.21,,,,,,,
1190.31,-8e-05,42.52,,,,,,,
1190.34,-6e-05,44.53,,,,,,,
1190.34,-5e-05,45.05,,,,,,,
1190.37,-3e-05,47.65,,,,,,,
1190.4,-0.0,51.22,,,,,,,
1190.43,2e-05,54.12,,,,,,,
1190.43,3e-05,55.14,,,,,,,
1190.43,5e-05,56.89,,,,,,,
1190.46,7e-05,59.93,,,,,,,
1190.5,0.0001,62.64,,,,,,,
1190.53,0.00013,65.17,,,,,,,
1190.53,0.00015,67.63,,,,,,,
1190.53,0.00015,68.01,,,,,,,
1190.56,0.00018,70.77,,,,,,,
1190.59,0.0002,73.45,,,,,,,
1190.59,0.00023,76.05,,,,,,,
1190.62,0.00025,78.48,,,,,,,
1190.62,0.00026,78.41,,,,,,,
1190.65,0.00028,80.49,,,,,,,
1190.68,0.00031,82.89,,,,,,,
1190.71,0.00033,85.2,,,,,,,
1190.75,0.00034,86.24,,,,,,,
1190.75,0.00036,87.62,,,,,,,
1190.78,0.00038,89.94,,,,,,,
1190.81,0.00041,92.61,,,,,,,
1190.84,0.00042,93.52,,,,,,,
1190.84,0.00043,94.72,,,,,,,
1190.87,0.00046,96.88,,,,,,,
1190.9,0.00048,99.25,,,,,,,
1190.93,0.00051,101.55,,,,,,,
1190.93,0.00051,101.77,,,,,,,
1190.96,0.00053,104.04,,,,,,,
1191.0,0.00056,106.72,,,,,,,
1191.03,0.00058,109.49,,,,,,,
1191.03,0.0006,110.86,,,,,,,
1191.06,0.00061,112.13,,,,,,,
1191.06,0.00063,114.89,,,,,,,
1191.09,0.00066,117.91,,,,,,,
1191.12,0.00069,120.63,,,,,,,
1191.12,0.0007,122.23,,,,,,,
1191.15,0.00071,123.39,,,,,,,
1191.15,0.00074,126.32,,,,,,,
1191.18,0.00076,129.01,,,,,,,
1191.18,0.00079,131.61,,,,,,,
1191.21,0.00082,133.91,,,,,,,
1191.25,0.00084,136.34,,,,,,,
1191.25,0.00084,136.29,,,,,,,
1191.25,0.00087,138.85,,,,,,,
1191.28,0.00089,141.41,,,,,,,
1191.28,0.00092,143.61,,,,,,,
1191.31,0.00094,145.5,,,,,,,
1191.31,0.00097,147.48,,,,,,,
1191.34,0.00098,148.84,,,,,,,
1191.34,0.00099,149.62,,,,,,,
1191.37,0.00102,151.55,,,,,,,
1191.37,0.00105,153.51,,,,,,,
1191.4,0.00107,155.17,,,,,,,
1191.43,0.0011,157.06,,,,,,,
1191.43,0.00111,158.11,,,,,,,
1191.43,0.00112,158.68,,,,,,,
1191.46,0.00115,160.39,,,,,,,
1191.46,0.00117,161.66,,,,,,,
1191.5,0.0012,163.03,,,,,,,
1191.53,0.00123,164.26,,,,,,,
1191.53,0.00124,164.77,,,,,,,
1191.53,0.00125,165.66,,,,,,,
1191.56,0.00128,166.87,,,,,,,
1191.59,0.0013,168.07,,,,,,,
1191.62,0.00133,168.7,,,,,,,
1191.62,0.00135,169.41,,,,,,,
1191.62,0.00136,169.68,,,,,,,
1191.65,0.00138,170.14,,,,,,,
2989.46,0.0014,166.27,,,,,,,
2989.46,0.00141,166.36,,,,,,,
2989.5,0.00142,166.76,,,,,,,
2989.53,0.00145,167.13,,,,,,,
2989.56,0.00148,165.94,,,,,,,
2989.59,0.0015,163.47,,,,,,,
2989.59,0.0015,162.26,,,,,,,
2989.68,0.00148,146.34,,,,,,,
2989.68,0.00147,144.64,,,,,,,
2989.68,0.00145,139.75,,,,,,,
2989.71,0.00143,134.4,,,,,,,
2989.75,0.0014,129.73,,,,,,,
2989.75,0.00137,124.48,,,,,,,
2989.78,0.00135,120.23,,,,,,,
2989.78,0.00134,118.81,,,,,,,
2989.78,0.00132,115.73,,,,,,,
2989.81,0.0013,111.54,,,,,,,
2989.81,0.00127,107.81,,,,,,,
2989.84,0.00125,103.78,,,,,,,
2989.87,0.00122,100.34,,,,,,,
2989.87,0.0012,97.1,,,,,,,
2989.87,0.00119,96.34,,,,,,,
2989.9,0.00117,92.28,,,,,,,
2989.93,0.00114,88.85,,,,,,,
2989.93,0.00112,84.98,,,,,,,
2989.96,0.00109,81.51,,,,,,,
2989.96,0.00109,81.17,,,,,,,
2990.0,0.00107,78.2,,,,,,,
2990.03,0.00104,73.81,,,,,,,
2990.06,0.00102,70.13,,,,,,,
2990.09,0.001,67.63,,,,,,,
2990.09,0.00099,66.14,,,,,,,
2990.12,0.00097,62.77,,,,,,,
2990.15,0.00094,59.34,,,,,,,
2990.15,0.00091,56.11,,,,,,,
2990.18,0.00091,54.77,,,,,,,
2990.18,0.00089,52.77,,,,,,,
2990.21,0.00086,49.78,,,,,,,
2990.25,0.00084,46.63,,,,,,,
2990.28,0.00081,42.82,,,,,,,
2990.28,0.00081,42.65,,,,,,,
2990.31,0.00079,38.8,,,,,,,
2990.34,0.00076,35.24,,,,,,,
2990.37,0.00074,32.02,,,,,,,
2990.37,0.00073,30.74,,,,,,,
2990.4,0.00071,28.78,,,,,,,
2990.4,0.00069,25.62,,,,,,,
2990.43,0.00066,21.92,,,,,,,
2990.46,0.00064,18.8,,,,,,,
2990.46,0.00064,18.55,,,,,,,
2990.5,0.00061,14.61,,,,,,,
2990.53,0.00058,11.0,,,,,,,
2990.56,0.00056,7.35,,,,,,,
2990.56,0.00055,6.59,,,,,,,
2990.59,0.00053,4.17,,,,,,,
2990.62,0.00051,0.76,,,,,,,
2990.65,0.00048,-2.6,,,,,,,
2990.68,0.00046,-5.56,,,,,,,
2990.68,0.00046,-5.83,,,,,,,
2990.71,0.00043,-9.14,,,,,,,
2990.71,0.00041,-12.14,,,,,,,
2990.75,0.00038,-15.33,,,,,,,
2990.78,0.00037,-16.39,,,,,,,
2990.78,0.00036,-17.48,,,,,,,
2990.84,0.00033,-19.5,,,,,,,
2990.87,0.00031,-21.6,,,,,,,
2990.87,0.0003,-21.96,,,,,,,
2990.93,0.00028,-25.42,,,,,,,
2990.96,0.00027,-27.59,,,,,,,
2991.0,0.00025,-29.63,,,,,,,
2991.03,0.00023,-33.47,,,,,,,
2991.03,0.0002,-37.15,,,,,,,
2991.06,0.00018,-40.01,,,,,,,
2991.06,0.00016,-42.83,,,,,,,
2991.06,0.00015,-43.21,,,,,,,
2991.09,0.00013,-46.2,,,,,,,
2991.12,0.0001,-49.7,,,,,,,
2991.12,8e-05,-52.13,,,,,,,
2991.15,5e-05,-54.61,,,,,,,
2991.18,3e-05,-56.54,,,,,,,
2991.18,3e-05,-57.56,,,,,,,
2991.21,0.0,-59.62,,,,,,,
2991.21,-3e-05,-61.73,,,,,,,
2991.25,-5e-05,-64.32,,,,,,,
2991.28,-6e-05,-65.26,,,,,,,
2991.28,-8e-05,-66.87,,,,,,,
2991.31,-0.0001,-68.68,,,,,,,
2991.34,-0.00013,-71.14,,,,,,,
2991.37,-0.00014,-72.81,,,,,,,
2991.4,-0.00015,-74.04,,,,,,,
2991.4,-0.00018,-76.36,,,,,,,
2991.46,-0.0002,-79.06,,,,,,,
2991.46,-0.00022,-80.9,,,,,,,
2991.46,-0.00023,-81.76,,,,,,,
2991.5,-0.00025,-84.51,,,,,,,
2991.53,-0.00028,-86.72,,,,,,,
2991.56,-0.0003,-90.11,,,,,,,
2991.56,-0.00031,-90.61,,,,,,,
2991.59,-0.00033,-92.83,,,,,,,
2991.62,-0.00036,-95.6,,,,,,,
2991.62,-0.00038,-98.51,,,,,,,
2991.65,-0.00041,-101.1,,,,,,,
2991.65,-0.00043,-104.5,,,,,,,
2991.68,-0.00044,-105.5,,,,,,,
2991.68,-0.00046,-107.2,,,,,,,
2991.68,-0.00048,-110.0,,,,,,,
2991.71,-0.00051,-112.5,,,,,,,
2991.71,-0.00053,-115.1,,,,,,,
2991.75,-0.00056,-117.6,,,,,,,
2991.75,-0.00059,-119.6,,,,,,,
2991.78,-0.0006,-121.0,,,,,,,
2991.78,-0.00061,-122.8,,,,,,,
2991.81,-0.00064,-125.1,,,,,,,
2991.81,-0.00066,-127.2,,,,,,,
2991.84,-0.00069,-129.3,,,,,,,
2991.84,-0.00071,-131.2,,,,,,,
2991.87,-0.00074,-133.1,,,,,,,
2991.87,-0.00075,-133.4,,,,,,,
2991.87,-0.00076,-135.2,,,,,,,
2991.9,-0.00079,-137.2,,,,,,,
2991.93,-0.00082,-139.0,,,,,,,
2991.93,-0.00084,-140.3,,,,,,,
2991.96,-0.00087,-142.0,,,,,,,
2991.96,-0.00087,-142.2,,,,,,,
2992.0,-0.00089,-143.7,,,,,,,
2992.0,-0.00092,-145.1,,,,,,,
2992.03,-0.00094,-146.7,,,,,,,
2992.06,-0.00097,-148.1,,,,,,,
2992.06,-0.00098,-148.6,,,,,,,
2992.09,-0.00099,-149.4,,,,,,,
2992.12,-0.00102,-150.3,,,,,,,
2992.12,-0.00105,-151.9,,,,,,,
2992.15,-0.00107,-152.8,,,,,,,
2992.18,-0.00108,-153.6,,,,,,,
2992.18,-0.0011,-153.8,,,,,,,
2992.21,-0.00112,-155.2,,,,,,,
2992.21,-0.00115,-156.7,,,,,,,
2992.25,-0.00117,-157.7,,,,,,,
2992.28,-0.00119,-158.2,,,,,,,
2992.28,-0.0012,-158.5,,,,,,,
2992.31,-0.00122,-159.7,,,,,,,
2992.34,-0.00125,-160.4,,,,,,,
2992.34,-0.00128,-161.6,,,,,,,
2992.37,-0.00129,-162.2,,,,,,,
2992.37,-0.0013,-162.6,,,,,,,
2992.4,-0.00133,-163.5,,,,,,,
2992.43,-0.00135,-164.5,,,,,,,
2992.46,-0.00138,-165.6,,,,,,,
2992.46,-0.00138,-165.8,,,,,,,
2992.5,-0.0014,-166.5,,,,,,,
2992.5,-0.00143,-166.9,,,,,,,
2992.53,-0.00145,-167.1,,,,,,,
2992.56,-0.00147,-166.0,,,,,,,
2992.56,-0.00148,-165.5,,,,,,,
2992.65,-0.00147,-151.5,,,,,,,
2992.68,-0.00145,-145.2,,,,,,,
2992.71,-0.00143,-139.7,,,,,,,
2992.75,-0.0014,-133.9,,,,,,,
2992.75,-0.00138,-129.6,,,,,,,
2992.78,-0.00136,-126.7,,,,,,,
2992.78,-0.00135,-125.2,,,,,,,
2992.78,-0.00132,-120.7,,,,,,,
2992.81,-0.0013,-116.8,,,,,,,
2992.81,-0.00127,-113.0,,,,,,,
2992.84,-0.00125,-109.4,,,,,,,
2992.87,-0.00122,-106.1,,,,,,,
2992.87,-0.00121,-104.4,,,,,,,
2992.87,-0.00119,-102.4,,,,,,,
2992.9,-0.00117,-98.72,,,,,,,
2992.9,-0.00114,-95.38,,,,,,,
2992.93,-0.00112,-91.7,,,,,,,
2992.96,-0.00109,-88.46,,,,,,,
2992.96,-0.00109,-87.95,,,,,,,
2993.0,-0.00107,-85.05,,,,,,,
2993.03,-0.00104,-80.92,,,,,,,
2993.06,-0.00101,-77.37,,,,,,,
2993.06,-0.001,-75.44,,,,,,,
2993.09,-0.00099,-73.75,,,,,,,
2993.12,-0.00096,-69.67,,,,,,,
2993.12,-0.00094,-66.32,,,,,,,
2993.15,-0.00091,-63.04,,,,,,,
2993.15,-0.00091,-62.95,,,,,,,
2993.18,-0.00089,-59.43,,,,,,,
2993.21,-0.00086,-56.49,,,,,,,
2993.25,-0.00083,-53.4,,,,,,,
2993.28,-0.00081,-50.92,,,,,,,
2993.28,-0.00081,-50.03,,,,,,,
2993.31,-0.00078,-46.63,,,,,,,
2993.34,-0.00076,-43.47,,,,,,,
2993.34,-0.00073,-40.35,,,,,,,
2993.37,-0.00072,-39.15,,,,,,,
2993.37,-0.00071,-36.88,,,,,,,
2993.4,-0.00068,-33.51,,,,,,,
2993.43,-0.00066,-29.85,,,,,,,
2993.46,-0.00063,-27.45,,,,,,,
2993.46,-0.00063,-26.73,,,,,,,
2993.5,-0.0006,-23.71,,,,,,,
2993.53,-0.00058,-20.05,,,,,,,
2993.56,-0.00055,-17.18,,,,,,,
2993.56,-0.00054,-15.66,,,,,,,
2993.56,-0.00053,-14.22,,,,,,,
2993.59,-0.0005,-10.93,,,,,,,
2993.62,-0.00048,-7.52,,,,,,,
2993.65,-0.00045,-3.81,,,,,,,
2993.65,-0.00045,-3.85,,,,,,,
2993.68,-0.00043,-0.89,,,,,,,
2993.71,-0.0004,2.59,,,,,,,
2993.75,-0.00038,5.69,,,,,,,
2993.75,-0.00036,7.93,,,,,,,
2993.78,-0.00035,9.1,,,,,,,
2993.81,-0.00033,12.3,,,,,,,
2993.84,-0.0003,15.93,,,,,,,
2993.87,-0.00027,19.11,,,,,,,
2993.87,-0.00027,19.88,,,,,,,
2993.87,-0.00025,21.95,,,,,,,
2993.9,-0.00022,25.09,,,,,,,
2993.93,-0.0002,27.8,,,,,,,
2993.96,-0.00017,31.15,,,,,,,
2993.96,-0.00017,31.02,,,,,,,
2994.0,-0.00015,33.69,,,,,,,
2994.03,-0.00012,35.71,,,,,,,
2994.06,-0.0001,38.11,,,,,,,
2994.06,-0.0001,38.9,,,,,,,
2994.12,-7e-05,42.05,,,,,,,
2994.15,-5e-05,44.13,,,,,,,
2994.15,-5e-05,44.5,,,,,,,
2994.21,-2e-05,47.6,,,,,,,
2994.25,0.0,50.8,,,,,,,
2994.25,2e-05,53.42,,,,,,,
2994.28,3e-05,55.05,,,,,,,
2994.28,5e-05,57.52,,,,,,,
2994.31,8e-05,60.29,,,,,,,
2994.34,0.00011,63.99,,,,,,,
2994.37,0.00013,66.66,,,,,,,
2994.37,0.00014,67.11,,,,,,,
2994.37,0.00016,69.47,,,,,,,
2994.4,0.00018,72.65,,,,,,,
2994.43,0.00021,75.63,,,,,,,
2994.43,0.00023,77.79,,,,,,,
2994.46,0.00025,80.03,,,,,,,
2994.46,0.00026,80.56,,,,,,,
2994.5,0.00029,82.81,,,,,,,
2994.53,0.00031,85.25,,,,,,,
2994.53,0.00034,87.23,,,,,,,
2994.56,0.00035,88.77,,,,,,,
2994.56,0.00036,89.3,,,,,,,
2994.59,0.00039,91.15,,,,,,,
2994.62,0.00041,93.37,,,,,,,
2994.65,0.00043,95.54,,,,,,,
2994.65,0.00044,96.0,,,,,,,
2994.68,0.00046,97.93,,,,,,,
2994.71,0.00049,100.4,,,,,,,
2994.75,0.00051,103.01,,,,,,,
2994.75,0.00052,103.04,,,,,,,
2994.78,0.00054,104.46,,,,,,,
2994.81,0.00057,106.68,,,,,,,
2994.84,0.00059,109.11,,,,,,,
2994.87,0.00061,111.09,,,,,,,
2994.87,0.00062,111.91,,,,,,,
2994.9,0.00064,114.39,,,,,,,
2994.9,0.00067,116.15,,,,,,,
2994.93,0.00069,118.66,,,,,,,
2994.96,0.00072,121.38,,,,,,,
2994.96,0.00072,122.0,,,,,,,
2995.0,0.00075,124.56,,,,,,,
2995.0,0.00077,127.05,,,,,,,
2995.03,0.0008,129.83,,,,,,,
2995.03,0.00082,132.16,,,,,,,
2995.06,0.00085,134.83,,,,,,,
2995.06,0.00087,137.03,,,,,,,
2995.09,0.0009,138.89,,,,,,,
2995.09,0.00093,140.96,,,,,,,
2995.12,0.00095,142.8,,,,,,,
2995.15,0.00098,145.38,,,,,,,
2995.15,0.001,146.88,,,,,,,
2995.15,0.001,146.85,,,,,,,
2995.18,0.00103,148.94,,,,,,,
2995.18,0.00105,150.49,,,,,,,
2995.21,0.00108,151.96,,,,,,,
2995.25,0.0011,153.62,,,,,,,
2995.25,0.00113,154.74,,,,,,,
2995.25,0.00114,155.51,,,,,,,
2995.28,0.00116,156.7,,,,,,,
2995.31,0.00118,158.07,,,,,,,
2995.31,0.00121,158.68,,,,,,,
2995.34,0.00123,160.35,,,,,,,
2995.37,0.00125,161.08,,,,,,,
2995.37,0.00126,161.04,,,,,,,
2995.37,0.00128,162.29,,,,,,,
2995.4,0.00131,163.17,,,,,,,
2995.43,0.00133,164.2,,,,,,,
2995.46,0.00136,164.93,,,,,,,
2995.46,0.00137,165.0,,,,,,,
2995.46,0.00139,165.53,,,,,,,
5995.84,0.0014,168.07,,,,,,,
5995.87,0.00143,168.58,,,,,,,
5995.9,0.00145,168.77,,,,,,,
5995.9,0.00145,168.49,,,,,,,
5995.93,0.00148,167.77,,,,,,,
5996.0,0.0015,160.19,,,,,,,
5996.06,0.00145,144.76,,,,,,,
5996.09,0.00143,139.2,,,,,,,
5996.09,0.00142,137.33,,,,,,,
5996.09,0.0014,133.71,,,,,,,
5996.12,0.00138,128.63,,,,,,,
5996.15,0.00135,124.54,,,,,,,
5996.15,0.00132,120.11,,,,,,,
5996.18,0.0013,116.13,,,,,,,
5996.18,0.00128,113.04,,,,,,,
5996.18,0.00127,111.81,,,,,,,
5996.21,0.00125,108.02,,,,,,,
5996.25,0.00122,103.92,,,,,,,
5996.25,0.00119,99.73,,,,,,,
5996.28,0.00117,96.44,,,,,,,
5996.28,0.00115,93.86,,,,,,,
5996.31,0.00114,92.3,,,,,,,
5996.31,0.00112,88.59,,,,,,,
5996.34,0.00109,84.7,,,,,,,
5996.37,0.00107,81.09,,,,,,,
5996.37,0.00106,79.02,,,,,,,
5996.4,0.00104,76.75,,,,,,,
5996.43,0.00102,72.77,,,,,,,
5996.46,0.00099,68.3,,,,,,,
5996.5,0.00097,65.67,,,,,,,
5996.5,0.00097,64.49,,,,,,,
5996.53,0.00094,60.48,,,,,,,
5996.56,0.00091,57.19,,,,,,,
5996.59,0.00089,52.96,,,,,,,
5996.59,0.00088,52.22,,,,,,,
5996.62,0.00086,49.28,,,,,,,
5996.62,0.00084,46.19,,,,,,,
5996.65,0.00081,42.09,,,,,,,
5996.68,0.00079,39.15,,,,,,,
5996.68,0.00079,38.43,,,,,,,
5996.71,0.00076,35.23,,,,,,,
5996.75,0.00074,31.39,,,,,,,
5996.78,0.00071,28.47,,,,,,,
5996.78,0.00069,26.39,,,,,,,
5996.81,0.00069,24.91,,,,,,,
5996.81,0.00066,21.63,,,,,,,
5996.84,0.00063,18.59,,,,,,,
5996.87,0.00061,14.98,,,,,,,
5996.87,0.0006,14.04,,,,,,,
5996.9,0.00058,11.82,,,,,,,
5996.93,0.00056,9.08,,,,,,,
5996.96,0.00053,5.97,,,,,,,
5997.0,0.00051,3.03,,,,,,,
5997.0,0.0005,2.45,,,,,,,
5997.0,0.00048,0.23,,,,,,,
5997.03,0.00046,-2.87,,,,,,,
5997.06,0.00043,-5.48,,,,,,,
5997.09,0.00041,-7.99,,,,,,,
5997.09,0.00041,-8.39,,,,,,,
5997.12,0.00038,-11.36,,,,,,,
5997.15,0.00035,-13.89,,,,,,,
5997.18,0.00033,-16.02,,,,,,,
5997.18,0.00032,-16.25,,,,,,,
5997.21,0.0003,-18.03,,,,,,,
5997.28,0.00028,-20.33,,,,,,,
5997.28,0.00027,-20.46,,,,,,,
5997.31,0.00025,-22.36,,,,,,,
5997.37,0.00023,-26.14,,,,,,,
5997.37,0.00022,-26.88,,,,,,,
5997.4,0.0002,-29.87,,,,,,,
5997.43,0.00018,-33.53,,,,,,,
5997.43,0.00015,-36.55,,,,,,,
5997.46,0.00013,-39.79,,,,,,,
5997.5,0.00011,-41.82,,,,,,,
5997.5,0.0001,-42.89,,,,,,,
5997.5,8e-05,-45.95,,,,,,,
5997.53,5e-05,-48.5,,,,,,,
5997.56,2e-05,-50.88,,,,,,,
5997.56,-0.0,-53.82,,,,,,,
5997.59,-1e-05,-54.55,,,,,,,
5997.59,-3e-05,-56.14,,,,,,,
5997.62,-5e-05,-58.66,,,,,,,
5997.65,-8e-05,-60.94,,,,,,,
5997.68,-0.0001,-62.89,,,,,,,
5997.68,-0.0001,-63.15,,,,,,,
5997.71,-0.00013,-65.12,,,,,,,
5997.75,-0.00015,-67.38,,,,,,,
5997.78,-0.00018,-70.02,,,,,,,
5997.78,-0.00018,-70.24,,,,,,,
5997.81,-0.0002,-72.11,,,,,,,
5997.84,-0.00023,-74.1,,,,,,,
5997.87,-0.00025,-76.67,,,,,,,
5997.87,-0.00027,-77.83,,,,,,,
5997.9,-0.00028,-79.08,,,,,,,
5997.93,-0.00031,-81.24,,,,,,,
5997.96,-0.00033,-84.09,,,,,,,
5997.96,-0.00036,-86.53,,,,,,,
5998.0,-0.00036,-86.87,,,,,,,
5998.0,-0.00038,-89.32,,,,,,,
5998.03,-0.00041,-92.16,,,,,,,
5998.06,-0.00043,-95.16,,,,,,,
5998.06,-0.00046,-98.28,,,,,,,
5998.09,-0.00048,-100.7,,,,,,,
5998.09,-0.00048,-100.9,,,,,,,
5998.09,-0.00051,-103.5,,,,,,,
5998.12,-0.00054,-106.4,,,,,,,
5998.12,-0.00056,-108.9,,,,,,,
5998.15,-0.00059,-111.2,,,,,,,
5998.15,-0.00061,-113.6,,,,,,,
5998.18,-0.00063,-115.9,,,,,,,
5998.18,-0.00064,-116.3,,,,,,,
5998.21,-0.00066,-119.0,,,,,,,
5998.21,-0.00069,-121.6,,,,,,,
5998.25,-0.00071,-123.7,,,,,,,
5998.25,-0.00074,-125.7,,,,,,,
5998.28,-0.00077,-127.6,,,,,,,
5998.28,-0.00078,-128.5,,,,,,,
5998.28,-0.00079,-129.6,,,,,,,
5998.31,-0.00082,-131.7,,,,,,,
5998.34,-0.00084,-133.7,,,,,,,
5998.34,-0.00087,-135.2,,,,,,,
5998.37,-0.00089,-137.0,,,,,,,
5998.37,-0.00091,-137.9,,,,,,,
5998.4,-0.00092,-138.6,,,,,,,
5998.4,-0.00095,-140.2,,,,,,,
5998.43,-0.00097,-141.6,,,,,,,
5998.46,-0.001,-143.2,,,,,,,
5998.46,-0.00102,-144.1,,,,,,,
5998.5,-0.00102,-144.4,,,,,,,
5998.5,-0.00105,-145.7,,,,,,,
5998.53,-0.00107,-146.9,,,,,,,
5998.56,-0.0011,-148.2,,,,,,,
5998.59,-0.00112,-149.4,,,,,,,
5998.59,-0.00112,-149.3,,,,,,,
5998.62,-0.00115,-150.6,,,,,,,
5998.62,-0.00117,-151.7,,,,,,,
5998.65,-0.0012,-153.1,,,,,,,
5998.68,-0.00122,-154.0,,,,,,,
5998.68,-0.00123,-154.2,,,,,,,
5998.71,-0.00125,-155.2,,,,,,,
5998.75,-0.00128,-156.6,,,,,,,
5998.75,-0.0013,-157.9,,,,,,,
5998.78,-0.00132,-158.7,,,,,,,
5998.78,-0.00133,-159.2,,,,,,,
5998.81,-0.00135,-160.5,,,,,,,
5998.84,-0.00138,-161.6,,,,,,,
5998.87,-0.0014,-162.9,,,,,,,
5998.87,-0.00141,-163.4,,,,,,,
5998.9,-0.00143,-163.8,,,,,,,
5998.93,-0.00146,-163.2,,,,,,,
5998.96,-0.00148,-161.3,,,,,,,
5998.96,-0.00149,-160.0,,,,,,,
5999.06,-0.00146,-144.1,,,,,,,
5999.09,-0.00144,-140.0,,,,,,,
5999.09,-0.00143,-137.9,,,,,,,
5999.09,-0.0014,-133.0,,,,,,,
5999.12,-0.00138,-128.2,,,,,,,
5999.15,-0.00135,-123.6,,,,,,,
5999.15,-0.00133,-119.1,,,,,,,
5999.18,-0.0013,-115.3,,,,,,,
5999.18,-0.0013,-114.7,,,,,,,
5999.18,-0.00128,-110.7,,,,,,,
5999.21,-0.00125,-106.1,,,,,,,
5999.25,-0.00122,-102.3,,,,,,,
5999.25,-0.0012,-98.48,,,,,,,
5999.28,-0.00118,-94.54,,,,,,,
5999.28,-0.00117,-94.35,,,,,,,
5999.31,-0.00115,-90.56,,,,,,,
5999.31,-0.00112,-86.61,,,,,,,
5999.34,-0.0011,-83.03,,,,,,,
5999.37,-0.00107,-79.48,,,,,,,
5999.37,-0.00107,-78.56,,,,,,,
5999.4,-0.00105,-74.69,,,,,,,
5999.43,-0.00102,-70.91,,,,,,,
5999.46,-0.00099,-66.94,,,,,,,
5999.46,-0.00098,-64.6,,,,,,,
5999.5,-0.00097,-63.65,,,,,,,
5999.5,-0.00094,-59.84,,,,,,,
5999.53,-0.00092,-56.14,,,,,,,
5999.56,-0.00089,-52.67,,,,,,,
5999.56,-0.00088,-51.46,,,,,,,
5999.59,-0.00087,-48.96,,,,,,,
5999.62,-0.00084,-45.5,,,,,,,
5999.65,-0.00082,-42.01,,,,,,,
5999.68,-0.00079,-38.67,,,,,,,
5999.68,-0.00079,-38.28,,,,,,,
5999.71,-0.00077,-34.91,,,,,,,
5999.75,-0.00074,-31.61,,,,,,,
5999.75,-0.00072,-27.84,,,,,,,
5999.78,-0.0007,-26.34,,,,,,,
5999.78,-0.00069,-23.91,,,,,,,
5999.81,-0.00067,-21.16,,,,,,,
5999.84,-0.00064,-17.65,,,,,,,
5999.87,-0.00061,-13.74,,,,,,,
5999.87,-0.00061,-13.57,,,,,,,
5999.9,-0.00059,-10.11,,,,,,,
5999.93,-0.00056,-7.05,,,,,,,
5999.96,-0.00054,-3.61,,,,,,,
5999.96,-0.00052,-1.15,,,,,,,
6000.0,-0.00051,-0.16,,,,,,,
6000.0,-0.00049,3.37,,,,,,,
6000.03,-0.00046,6.2,,,,,,,
6000.06,-0.00044,9.6,,,,,,,
6000.06,-0.00043,11.02,,,,,,,
6000.09,-0.00041,12.87,,,,,,,
6000.12,-0.00039,15.95,,,,,,,
6000.15,-0.00036,19.47,,,,,,,
6000.18,-0.00034,22.72,,,,,,,
6000.18,-0.00031,25.97,,,,,,,
6000.21,-0.00028,29.13,,,,,,,
6000.25,-0.00026,32.11,,,,,,,
6000.28,-0.00025,33.53,,,,,,,
6000.28,-0.00023,34.85,,,,,,,
6000.31,-0.00021,37.31,,,,,,,
6000.37,-0.00018,40.02,,,,,,,
6000.37,-0.00018,40.63,,,,,,,
6000.4,-0.00016,43.21,,,,,,,
6000.46,-0.00013,45.5,,,,,,,
6000.46,-0.00012,46.21,,,,,,,
6000.5,-0.00011,48.45,,,,,,,
6000.53,-8e-05,52.6,,,,,,,
6000.56,-6e-05,55.81,,,,,,,
6000.56,-4e-05,57.34,,,,,,,
6000.59,-3e-05,58.58,,,,,,,
6000.59,-1e-05,61.77,,,,,,,
6000.62,2e-05,64.37,,,,,,,
6000.65,4e-05,67.1,,,,,,,
6000.65,7e-05,70.47,,,,,,,
6000.68,8e-05,71.28,,,,,,,
6000.68,0.0001,73.35,,,,,,,
6000.71,0.00012,75.84,,,,,,,
6000.71,0.00015,78.37,,,,,,,
6000.75,0.00017,80.52,,,,,,,
6000.78,0.0002,82.85,,,,,,,
6000.78,0.0002,82.68,,,,,,,
6000.81,0.00023,84.68,,,,,,,
6000.81,0.00025,86.9,,,,,,,
6000.84,0.00028,89.05,,,,,,,
6000.87,0.00029,90.23,,,,,,,
6000.87,0.0003,90.61,,,,,,,
6000.9,0.00033,92.84,,,,,,,
6000.93,0.00035,94.54,,,,,,,
6000.96,0.00037,96.5,,,,,,,
6000.96,0.00038,97.06,,,,,,,
6001.0,0.0004,98.87,,,,,,,
6001.03,0.00043,101.31,,,,,,,
6001.06,0.00045,103.88,,,,,,,
6001.06,0.00046,103.77,,,,,,,
6001.09,0.00048,106.01,,,,,,,
6001.12,0.0005,108.44,,,,,,,
6001.15,0.00053,110.67,,,,,,,
6001.18,0.00055,112.42,,,,,,,
6001.18,0.00056,113.43,,,,,,,
6001.21,0.00058,115.72,,,,,,,
6001.21,0.00061,118.69,,,,,,,
6001.25,0.00063,121.13,,,,,,,
6001.28,0.00066,123.72,,,,,,,
6001.28,0.00066,123.86,,,,,,,
6001.28,0.00068,126.7,,,,,,,
6001.31,0.00071,129.56,,,,,,,
6001.34,0.00074,131.59,,,,,,,
6001.34,0.00076,134.35,,,,,,,
6001.37,0.00079,136.69,,,,,,,
6001.37,0.00079,137.48,,,,,,,
6001.37,0.00081,139.21,,,,,,,
6001.4,0.00084,141.66,,,,,,,
6001.4,0.00086,143.74,,,,,,,
6001.43,0.00089,145.75,,,,,,,
6001.46,0.00092,147.86,,,,,,,
6001.46,0.00093,149.61,,,,,,,
6001.46,0.00094,149.89,,,,,,,
6001.5,0.00097,152.05,,,,,,,
6001.5,0.00099,153.61,,,,,,,
6001.53,0.00102,155.56,,,,,,,
6001.56,0.00104,157.22,,,,,,,
6001.56,0.00106,158.67,,,,,,,
6001.56,0.00107,158.73,,,,,,,
6001.59,0.0011,160.28,,,,,,,
6001.62,0.00112,161.87,,,,,,,
6001.62,0.00115,163.21,,,,,,,
6001.65,0.00117,164.45,,,,,,,
6001.65,0.00118,165.13,,,,,,,
6001.68,0.0012,165.55,,,,,,,
6001.68,0.00123,166.5,,,,,,,
6001.71,0.00125,167.37,,,,,,,
6001.75,0.00128,168.44,,,,,,,
6001.78,0.0013,169.17,,,,,,,
6001.78,0.00133,169.91,,,,,,,
6001.81,0.00135,170.53,,,,,,,
6001.84,0.00138,170.97,,,,,,,
12008.56,0.00141,165.82,,,,,,,
12008.59,0.00143,166.28,,,,,,,
12008.62,0.00145,166.27,,,,,,,
12008.62,0.00146,166.19,,,,,,,
12008.65,0.00148,164.39,,,,,,,
12008.71,0.0015,156.74,,,,,,,
12008.78,0.00146,141.85,,,,,,,
12008.81,0.00143,136.46,,,,,,,
12008.81,0.00142,133.37,,,,,,,
12008.81,0.00141,131.3,,,,,,,
12008.84,0.00138,125.88,,,,,,,
12008.84,0.00135,121.69,,,,,,,
12008.87,0.00133,117.08,,,,,,,
12008.9,0.0013,112.62,,,,,,,
12008.9,0.00128,108.85,,,,,,,
12008.93,0.00125,104.97,,,,,,,
12008.93,0.00123,100.91,,,,,,,
12008.96,0.0012,96.56,,,,,,,
12009.0,0.00118,92.75,,,,,,,
12009.0,0.00115,89.46,,,,,,,
12009.0,0.00115,88.95,,,,,,,
12009.03,0.00113,85.73,,,,,,,
12009.06,0.0011,81.69,,,,,,,
12009.09,0.00107,78.0,,,,,,,
12009.12,0.00105,74.57,,,,,,,
12009.12,0.00102,71.29,,,,,,,
12009.15,0.001,66.9,,,,,,,
12009.18,0.00097,63.9,,,,,,,
12009.21,0.00096,61.77,,,,,,,
12009.21,0.00095,59.64,,,,,,,
12009.25,0.00092,55.87,,,,,,,
12009.28,0.0009,51.57,,,,,,,
12009.31,0.00088,48.9,,,,,,,
12009.31,0.00087,47.98,,,,,,,
12009.34,0.00084,44.68,,,,,,,
12009.37,0.00082,41.23,,,,,,,
12009.4,0.00079,37.89,,,,,,,
12009.4,0.00078,35.7,,,,,,,
12009.43,0.00077,34.07,,,,,,,
12009.43,0.00074,31.59,,,,,,,
12009.46,0.00072,28.57,,,,,,,
12009.5,0.00069,25.39,,,,,,,
12009.5,0.00068,23.25,,,,,,,
12009.53,0.00067,21.64,,,,,,,
12009.56,0.00064,18.51,,,,,,,
12009.56,0.00062,15.73,,,,,,,
12009.59,0.00059,12.65,,,,,,,
12009.62,0.00059,11.75,,,,,,,
12009.62,0.00057,8.93,,,,,,,
12009.65,0.00054,5.44,,,,,,,
12009.68,0.00052,2.12,,,,,,,
12009.71,0.00051,0.59,,,,,,,
12009.71,0.00049,-1.69,,,,,,,
12009.75,0.00047,-5.41,,,,,,,
12009.78,0.00044,-8.94,,,,,,,
12009.81,0.00042,-11.11,,,,,,,
12009.81,0.00041,-11.51,,,,,,,
12009.84,0.00039,-14.55,,,,,,,
12009.87,0.00036,-16.86,,,,,,,
12009.9,0.00034,-18.81,,,,,,,
12009.9,0.00034,-19.26,,,,,,,
12009.96,0.00031,-21.52,,,,,,,
12010.0,0.00029,-23.56,,,,,,,
12010.03,0.00029,-24.05,,,,,,,
12010.06,0.00026,-27.54,,,,,,,
12010.09,0.00024,-31.68,,,,,,,
12010.09,0.00023,-33.59,,,,,,,
12010.12,0.00021,-35.17,,,,,,,
12010.12,0.00019,-37.92,,,,,,,
12010.15,0.00016,-41.39,,,,,,,
12010.18,0.00013,-44.04,,,,,,,
12010.18,0.00011,-46.84,,,,,,,
12010.21,9e-05,-49.05,,,,,,,
12010.21,8e-05,-49.38,,,,,,,
12010.21,6e-05,-51.99,,,,,,,
12010.25,3e-05,-54.15,,,,,,,
12010.28,1e-05,-56.3,,,,,,,
12010.31,-2e-05,-58.66,,,,,,,
12010.31,-3e-05,-59.31,,,,,,,
12010.34,-5e-05,-61.21,,,,,,,
12010.34,-7e-05,-62.93,,,,,,,
12010.37,-0.0001,-65.06,,,,,,,
12010.4,-0.00011,-66.1,,,,,,,
12010.4,-0.00012,-66.82,,,,,,,
12010.43,-0.00015,-69.09,,,,,,,
12010.46,-0.00017,-71.09,,,,,,,
12010.5,-0.00019,-72.76,,,,,,,
12010.5,-0.0002,-72.91,,,,,,,
12010.53,-0.00022,-75.37,,,,,,,
12010.56,-0.00025,-77.58,,,,,,,
12010.59,-0.00027,-80.1,,,,,,,
12010.59,-0.00028,-80.55,,,,,,,
12010.62,-0.0003,-82.16,,,,,,,
12010.65,-0.00032,-85.39,,,,,,,
12010.68,-0.00035,-88.29,,,,,,,
12010.71,-0.00037,-91.19,,,,,,,
12010.71,-0.00037,-91.52,,,,,,,
12010.71,-0.0004,-93.96,,,,,,,
12010.75,-0.00043,-96.64,,,,,,,
12010.75,-0.00045,-99.09,,,,,,,
12010.78,-0.00048,-102.4,,,,,,,
12010.78,-0.0005,-104.9,,,,,,,
12010.81,-0.00052,-106.4,,,,,,,
12010.81,-0.00053,-107.5,,,,,,,
12010.84,-0.00056,-110.5,,,,,,,
12010.84,-0.00058,-112.5,,,,,,,
12010.87,-0.00061,-114.3,,,,,,,
12010.87,-0.00063,-116.7,,,,,,,
12010.9,-0.00066,-118.8,,,,,,,
12010.9,-0.00067,-120.4,,,,,,,
12010.9,-0.00068,-120.8,,,,,,,
12010.93,-0.00071,-123.1,,,,,,,
12010.93,-0.00073,-125.1,,,,,,,
12010.96,-0.00076,-126.8,,,,,,,
12011.0,-0.00078,-128.6,,,,,,,
12011.0,-0.00081,-130.3,,,,,,,
12011.0,-0.00081,-130.5,,,,,,,
12011.03,-0.00084,-131.9,,,,,,,
12011.03,-0.00086,-133.7,,,,,,,
12011.06,-0.00089,-135.1,,,,,,,
12011.09,-0.00091,-136.6,,,,,,,
12011.09,-0.00093,-137.3,,,,,,,
12011.12,-0.00094,-138.0,,,,,,,
12011.12,-0.00096,-139.5,,,,,,,
12011.15,-0.00099,-140.7,,,,,,,
12011.18,-0.00101,-141.9,,,,,,,
12011.18,-0.00103,-142.4,,,,,,,
12011.21,-0.00104,-143.4,,,,,,,
12011.25,-0.00106,-144.7,,,,,,,
12011.28,-0.00109,-146.3,,,,,,,
12011.31,-0.00112,-148.0,,,,,,,
12011.31,-0.00112,-147.9,,,,,,,
12011.31,-0.00114,-149.5,,,,,,,
12011.34,-0.00117,-151.0,,,,,,,
12011.37,-0.00119,-152.2,,,,,,,
12011.4,-0.00121,-153.8,,,,,,,
12011.4,-0.00122,-154.0,,,,,,,
12011.43,-0.00124,-155.7,,,,,,,
12011.46,-0.00127,-157.1,,,,,,,
12011.5,-0.0013,-158.9,,,,,,,
12011.5,-0.00131,-159.9,,,,,,,
12011.5,-0.00132,-160.2,,,,,,,
12011.53,-0.00135,-161.5,,,,,,,
12011.56,-0.00137,-163.2,,,,,,,
12011.56,-0.0014,-164.0,,,,,,,
12011.59,-0.00142,-165.1,,,,,,,
12011.59,-0.00143,-165.2,,,,,,,
12011.62,-0.00145,-165.2,,,,,,,
12011.65,-0.00147,-164.7,,,,,,,
12011.68,-0.0015,-159.5,,,,,,,
12011.78,-0.00145,-141.2,,,,,,,
12011.81,-0.00143,-137.7,,,,,,,
12011.81,-0.00142,-136.2,,,,,,,
12011.81,-0.0014,-131.3,,,,,,,
12011.84,-0.00137,-127.1,,,,,,,
12011.84,-0.00135,-122.7,,,,,,,
12011.87,-0.00132,-118.5,,,,,,,
12011.9,-0.0013,-114.4,,,,,,,
12011.9,-0.00128,-112.3,,,,,,,
12011.9,-0.00127,-110.7,,,,,,,
12011.93,-0.00124,-106.9,,,,,,,
12011.93,-0.00122,-103.5,,,,,,,
12011.96,-0.00119,-99.41,,,,,,,
12011.96,-0.00117,-95.92,,,,,,,
12012.0,-0.00115,-92.8,,,,,,,
12012.0,-0.00114,-91.93,,,,,,,
12012.03,-0.00111,-88.39,,,,,,,
12012.06,-0.00109,-84.7,,,,,,,
12012.06,-0.00106,-81.11,,,,,,,
12012.09,-0.00104,-78.65,,,,,,,
12012.09,-0.00104,-78.19,,,,,,,
12012.12,-0.00101,-74.4,,,,,,,
12012.15,-0.00099,-70.75,,,,,,,
12012.18,-0.00096,-66.97,,,,,,,
12012.18,-0.00096,-66.73,,,,,,,
12012.21,-0.00094,-63.48,,,,,,,
12012.25,-0.00091,-59.24,,,,,,,
12012.28,-0.00088,-55.54,,,,,,,
12012.31,-0.00087,-54.23,,,,,,,
12012.31,-0.00086,-51.89,,,,,,,
12012.34,-0.00083,-47.75,,,,,,,
12012.37,-0.00081,-44.57,,,,,,,
12012.4,-0.00078,-41.33,,,,,,,
12012.4,-0.00078,-40.93,,,,,,,
12012.43,-0.00076,-37.54,,,,,,,
12012.46,-0.00073,-33.67,,,,,,,
12012.46,-0.00071,-30.12,,,,,,,
12012.5,-0.00069,-28.19,,,,,,,
12012.5,-0.00068,-26.46,,,,,,,
12012.53,-0.00065,-23.21,,,,,,,
12012.56,-0.00063,-19.54,,,,,,,
12012.59,-0.0006,-16.26,,,,,,,
12012.59,-0.0006,-15.47,,,,,,,
12012.62,-0.00058,-12.6,,,,,,,
12012.65,-0.00055,-9.65,,,,,,,
12012.65,-0.00053,-6.71,,,,,,,
12012.68,-0.0005,-3.2,,,,,,,
12012.68,-0.0005,-3.3,,,,,,,
12012.71,-0.00048,0.27,,,,,,,
12012.75,-0.00045,4.02,,,,,,,
12012.78,-0.00042,6.86,,,,,,,
12012.81,-0.00041,8.55,,,,,,,
12012.81,-0.0004,10.4,,,,,,,
12012.84,-0.00037,13.22,,,,,,,
12012.87,-0.00035,16.66,,,,,,,
12012.9,-0.00032,19.96,,,,,,,
12012.9,-0.00032,20.16,,,,,,,
12012.9,-0.0003,22.91,,,,,,,
12012.93,-0.00027,26.16,,,,,,,
12012.96,-0.00025,29.34,,,,,,,
12013.0,-0.00023,31.43,,,,,,,
12013.0,-0.00022,32.64,,,,,,,
12013.03,-0.0002,35.29,,,,,,,
12013.06,-0.00017,37.66,,,,,,,
12013.09,-0.00016,39.38,,,,,,,
12013.12,-0.00015,40.4,,,,,,,
12013.15,-0.00012,43.83,,,,,,,
12013.18,-0.0001,45.33,,,,,,,
12013.21,-0.0001,45.97,,,,,,,
12013.25,-7e-05,49.84,,,,,,,
12013.28,-5e-05,53.62,,,,,,,
12013.28,-4e-05,54.73,,,,,,,
12013.31,-2e-05,56.99,,,,,,,
12013.34,1e-05,60.4,,,,,,,
12013.34,3e-05,62.72,,,,,,,
12013.37,6e-05,65.99,,,,,,,
12013.4,8e-05,68.92,,,,,,,
12013.4,8e-05,69.16,,,,,,,
12013.4,0.00011,71.7,,,,,,,
12013.43,0.00013,74.36,,,,,,,
12013.43,0.00016,76.75,,,,,,,
12013.46,0.00018,79.24,,,,,,,
12013.5,0.00021,81.47,,,,,,,
12013.5,0.00021,81.62,,,,,,,
12013.53,0.00024,83.8,,,,,,,
12013.53,0.00026,85.73,,,,,,,
12013.56,0.00029,87.56,,,,,,,
12013.59,0.00031,89.16,,,,,,,
12013.59,0.00031,89.33,,,,,,,
12013.62,0.00034,91.51,,,,,,,
12013.65,0.00036,93.74,,,,,,,
12013.68,0.00039,95.35,,,,,,,
12013.68,0.00039,95.42,,,,,,,
12013.71,0.00041,97.89,,,,,,,
12013.75,0.00044,100.33,,,,,,,
12013.78,0.00047,102.03,,,,,,,
12013.78,0.00047,102.45,,,,,,,
12013.81,0.00049,104.71,,,,,,,
12013.84,0.00052,107.08,,,,,,,
12013.87,0.00054,109.19,,,,,,,
12013.9,0.00056,110.9,,,,,,,
12013.9,0.00057,111.65,,,,,,,
12013.93,0.00059,114.19,,,,,,,
12013.93,0.00062,116.55,,,,,,,
12013.96,0.00064,118.82,,,,,,,
12014.0,0.00067,121.51,,,,,,,
12014.0,0.0007,124.02,,,,,,,
12014.03,0.00072,126.56,,,,,,,
12014.06,0.00075,129.1,,,,,,,
12014.06,0.00077,131.29,,,,,,,
12014.09,0.0008,133.96,,,,,,,
12014.09,0.00081,134.47,,,,,,,
12014.09,0.00082,136.29,,,,,,,
12014.12,0.00085,138.29,,,,,,,
12014.12,0.00088,140.26,,,,,,,
12014.15,0.0009,142.91,,,,,,,
12014.18,0.00093,144.8,,,,,,,
12014.18,0.00094,146.04,,,,,,,
12014.18,0.00095,146.68,,,,,,,
12014.21,0.00098,148.46,,,,,,,
12014.21,0.00101,150.16,,,,,,,
12014.25,0.00103,152.11,,,,,,,
12014.28,0.00106,153.83,,,,,,,
12014.28,0.00108,154.93,,,,,,,
12014.28,0.00108,155.1,,,,,,,
12014.31,0.00111,156.6,,,,,,,
12014.34,0.00113,158.31,,,,,,,
12014.34,0.00116,159.36,,,,,,,
12014.37,0.00118,160.88,,,,,,,
12014.37,0.0012,161.17,,,,,,,
12014.4,0.00121,161.84,,,,,,,
12014.4,0.00124,162.64,,,,,,,
12014.43,0.00126,163.96,,,,,,,
12014.46,0.00129,164.71,,,,,,,
12014.5,0.00131,165.28,,,,,,,
12014.5,0.00131,165.47,,,,,,,
12014.5,0.00134,166.19,,,,,,,
12014.53,0.00136,166.78,,,,,,,
12014.56,0.00139,167.27,,,,,,,
28844.25,0.00139,160.02,,,,,,,
28844.28,0.00142,160.47,,,,,,,
28844.28,0.00143,160.53,,,,,,,
28844.31,0.00144,160.84,,,,,,,
28844.34,0.00147,160.07,,,,,,,
28844.37,0.00149,154.92,,,,,,,
28844.46,0.00144,139.96,,,,,,,
28844.5,0.00142,135.34,,,,,,,
28844.5,0.00142,134.92,,,,,,,
28844.5,0.00139,129.85,,,,,,,
28844.53,0.00137,125.81,,,,,,,
28844.53,0.00134,121.99,,,,,,,
28844.56,0.00132,118.18,,,,,,,
28844.59,0.00129,114.09,,,,,,,
28844.59,0.00128,112.26,,,,,,,
28844.59,0.00126,109.83,,,,,,,
28844.62,0.00124,106.37,,,,,,,
28844.62,0.00121,103.0,,,,,,,
28844.65,0.00119,99.26,,,,,,,
28844.68,0.00116,95.54,,,,,,,
28844.68,0.00116,94.34,,,,,,,
28844.71,0.00114,91.74,,,,,,,
28844.71,0.00111,88.5,,,,,,,
28844.75,0.00109,85.07,,,,,,,
28844.78,0.00106,80.69,,,,,,,
28844.78,0.00106,80.27,,,,,,,
28844.81,0.00104,76.97,,,,,,,
28844.84,0.00101,73.38,,,,,,,
28844.87,0.00098,69.96,,,,,,,
28844.87,0.00096,67.54,,,,,,,
28844.9,0.00096,66.72,,,,,,,
28844.9,0.00093,63.36,,,,,,,
28844.93,0.00091,60.15,,,,,,,
28844.96,0.00088,56.25,,,,,,,
28845.0,0.00087,55.03,,,,,,,
28845.0,0.00086,52.58,,,,,,,
28845.03,0.00083,49.34,,,,,,,
28845.06,0.00081,45.76,,,,,,,
28845.09,0.00079,42.94,,,,,,,
28845.09,0.00078,42.22,,,,,,,
28845.12,0.00075,39.32,,,,,,,
28845.15,0.00073,36.11,,,,,,,
28845.18,0.0007,32.15,,,,,,,
28845.18,0.00069,31.07,,,,,,,
28845.18,0.00068,29.4,,,,,,,
28845.21,0.00065,26.14,,,,,,,
28845.25,0.00063,23.35,,,,,,,
28845.28,0.0006,19.89,,,,,,,
28845.28,0.0006,19.32,,,,,,,
28845.31,0.00058,17.28,,,,,,,
28845.34,0.00055,13.04,,,,,,,
28845.37,0.00053,10.5,,,,,,,
28845.37,0.00051,8.02,,,,,,,
28845.4,0.0005,6.89,,,,,,,
28845.43,0.00048,3.38,,,,,,,
28845.46,0.00045,-0.5,,,,,,,
28845.46,0.00042,-2.62,,,,,,,
28845.5,0.00042,-3.4,,,,,,,
28845.5,0.0004,-5.66,,,,,,,
28845.53,0.00037,-9.89,,,,,,,
28845.56,0.00035,-11.75,,,,,,,
28845.59,0.00033,-14.21,,,,,,,
28845.59,0.00032,-14.88,,,,,,,
28845.62,0.0003,-17.38,,,,,,,
28845.65,0.00027,-19.29,,,,,,,
28845.68,0.00026,-20.05,,,,,,,
28845.71,0.00025,-21.79,,,,,,,
28845.78,0.00022,-24.3,,,,,,,
28845.78,0.00022,-24.34,,,,,,,
28845.84,0.0002,-28.73,,,,,,,
28845.84,0.00017,-32.71,,,,,,,
28845.87,0.00015,-36.08,,,,,,,
28845.87,0.00014,-37.25,,,,,,,
28845.9,0.00012,-39.9,,,,,,,
28845.9,9e-05,-43.05,,,,,,,
28845.93,7e-05,-46.08,,,,,,,
28845.96,4e-05,-49.13,,,,,,,
28845.96,2e-05,-51.53,,,,,,,
28846.0,1e-05,-52.38,,,,,,,
28846.0,-1e-05,-54.62,,,,,,,
28846.03,-3e-05,-57.07,,,,,,,
28846.06,-6e-05,-59.68,,,,,,,
28846.06,-9e-05,-61.74,,,,,,,
28846.09,-9e-05,-62.38,,,,,,,
28846.09,-0.00011,-64.27,,,,,,,
28846.15,-0.00014,-66.79,,,,,,,
28846.15,-0.00016,-68.75,,,,,,,
28846.18,-0.00017,-70.2,,,,,,,
28846.21,-0.00019,-71.71,,,,,,,
28846.25,-0.00021,-73.94,,,,,,,
28846.25,-0.00024,-76.44,,,,,,,
28846.28,-0.00025,-78.19,,,,,,,
28846.28,-0.00026,-78.99,,,,,,,
28846.31,-0.00029,-81.59,,,,,,,
28846.34,-0.00031,-84.3,,,,,,,
28846.37,-0.00034,-86.85,,,,,,,
28846.37,-0.00034,-87.32,,,,,,,
28846.4,-0.00036,-89.69,,,,,,,
28846.43,-0.00039,-92.62,,,,,,,
28846.43,-0.00042,-95.64,,,,,,,
28846.46,-0.00044,-98.76,,,,,,,
28846.46,-0.00046,-101.0,,,,,,,
28846.5,-0.00047,-101.9,,,,,,,
28846.5,-0.00049,-104.5,,,,,,,
28846.53,-0.00052,-107.1,,,,,,,
28846.53,-0.00055,-109.6,,,,,,,
28846.56,-0.00057,-112.4,,,,,,,
28846.56,-0.0006,-114.9,,,,,,,
28846.59,-0.00062,-116.8,,,,,,,
28846.59,-0.00062,-117.4,,,,,,,
28846.59,-0.00065,-119.7,,,,,,,
28846.62,-0.00067,-121.4,,,,,,,
28846.62,-0.0007,-124.3,,,,,,,
28846.65,-0.00073,-126.3,,,,,,,
28846.65,-0.00075,-128.3,,,,,,,
28846.68,-0.00077,-129.3,,,,,,,
28846.68,-0.00078,-130.2,,,,,,,
28846.71,-0.0008,-132.3,,,,,,,
28846.71,-0.00083,-134.2,,,,,,,
28846.75,-0.00086,-135.7,,,,,,,
28846.75,-0.00088,-137.4,,,,,,,
28846.78,-0.0009,-138.5,,,,,,,
28846.78,-0.00091,-139.2,,,,,,,
28846.81,-0.00093,-140.9,,,,,,,
28846.84,-0.00096,-142.4,,,,,,,
28846.87,-0.00099,-143.8,,,,,,,
28846.87,-0.00101,-145.0,,,,,,,
28846.87,-0.00101,-145.4,,,,,,,
28846.9,-0.00104,-146.9,,,,,,,
28846.93,-0.00106,-148.1,,,,,,,
28846.96,-0.00109,-149.6,,,,,,,
28846.96,-0.00111,-150.6,,,,,,,
28847.0,-0.00111,-150.9,,,,,,,
28847.0,-0.00114,-152.2,,,,,,,
28847.03,-0.00116,-153.7,,,,,,,
28847.06,-0.00119,-155.4,,,,,,,
28847.09,-0.00121,-156.0,,,,,,,
28847.09,-0.00122,-156.3,,,,,,,
28847.12,-0.00124,-157.5,,,,,,,
28847.12,-0.00127,-158.7,,,,,,,
28847.15,-0.00129,-160.0,,,,,,,
28847.18,-0.00131,-160.7,,,,,,,
28847.18,-0.00132,-161.1,,,,,,,
28847.21,-0.00134,-162.0,,,,,,,
28847.25,-0.00137,-163.2,,,,,,,
28847.25,-0.00139,-164.3,,,,,,,
28847.28,-0.00141,-164.8,,,,,,,
28847.28,-0.00142,-165.1,,,,,,,
28847.31,-0.00145,-165.3,,,,,,,
28847.34,-0.00147,-164.4,,,,,,,
28847.37,-0.00149,-161.6,,,,,,,
28847.46,-0.00144,-143.5,,,,,,,
28847.46,-0.00144,-142.8,,,,,,,
28847.5,-0.00142,-138.3,,,,,,,
28847.53,-0.00139,-132.9,,,,,,,
28847.53,-0.00137,-128.2,,,,,,,
28847.56,-0.00134,-123.5,,,,,,,
28847.56,-0.00132,-119.4,,,,,,,
28847.56,-0.00131,-118.1,,,,,,,
28847.59,-0.00129,-115.8,,,,,,,
28847.59,-0.00127,-112.0,,,,,,,
28847.62,-0.00124,-108.4,,,,,,,
28847.62,-0.00121,-104.3,,,,,,,
28847.65,-0.00119,-100.7,,,,,,,
28847.68,-0.00117,-97.87,,,,,,,
28847.68,-0.00116,-96.85,,,,,,,
28847.68,-0.00114,-93.67,,,,,,,
28847.71,-0.00111,-89.94,,,,,,,
28847.75,-0.00109,-86.14,,,,,,,
28847.78,-0.00106,-83.11,,,,,,,
28847.78,-0.00106,-82.67,,,,,,,
28847.81,-0.00103,-79.57,,,,,,,
28847.84,-0.00101,-75.74,,,,,,,
28847.87,-0.00098,-71.63,,,,,,,
28847.87,-0.00098,-70.41,,,,,,,
28847.9,-0.00096,-67.71,,,,,,,
28847.93,-0.00093,-63.92,,,,,,,
28847.96,-0.00091,-60.16,,,,,,,
28847.96,-0.00089,-57.79,,,,,,,
28847.96,-0.00088,-57.26,,,,,,,
28848.0,-0.00086,-53.45,,,,,,,
28848.03,-0.00083,-49.94,,,,,,,
28848.06,-0.00081,-46.69,,,,,,,
28848.06,-0.00079,-44.92,,,,,,,
28848.09,-0.00078,-42.89,,,,,,,
28848.12,-0.00075,-39.4,,,,,,,
28848.15,-0.00073,-35.83,,,,,,,
28848.18,-0.00071,-32.7,,,,,,,
28848.18,-0.0007,-32.34,,,,,,,
28848.21,-0.00068,-28.41,,,,,,,
28848.25,-0.00065,-25.38,,,,,,,
28848.25,-0.00063,-21.91,,,,,,,
28848.28,-0.00061,-20.17,,,,,,,
28848.28,-0.0006,-18.88,,,,,,,
28848.31,-0.00058,-15.37,,,,,,,
28848.34,-0.00055,-12.4,,,,,,,
28848.37,-0.00053,-9.09,,,,,,,
28848.37,-0.00052,-8.16,,,,,,,
28848.4,-0.0005,-5.59,,,,,,,
28848.4,-0.00048,-2.6,,,,,,,
28848.43,-0.00045,0.57,,,,,,,
28848.46,-0.00043,3.76,,,,,,,
28848.46,-0.00043,3.79,,,,,,,
28848.5,-0.0004,6.67,,,,,,,
28848.53,-0.00037,10.29,,,,,,,
28848.56,-0.00035,13.37,,,,,,,
28848.56,-0.00033,15.42,,,,,,,
28848.59,-0.00032,16.49,,,,,,,
28848.62,-0.0003,19.59,,,,,,,
28848.62,-0.00027,22.44,,,,,,,
28848.65,-0.00025,25.32,,,,,,,
28848.68,-0.00024,26.68,,,,,,,
28848.68,-0.00022,29.09,,,,,,,
28848.71,-0.0002,31.74,,,,,,,
28848.75,-0.00017,34.44,,,,,,,
28848.78,-0.00015,36.14,,,,,,,
28848.78,-0.00015,36.57,,,,,,,
28848.81,-0.00012,38.91,,,,,,,
28848.87,-0.0001,41.24,,,,,,,
28848.87,-9e-05,41.62,,,,,,,
28848.9,-7e-05,43.76,,,,,,,
28848.96,-4e-05,46.25,,,,,,,
28848.96,-4e-05,46.86,,,,,,,
28849.0,-2e-05,49.27,,,,,,,
28849.03,1e-05,53.13,,,,,,,
28849.06,3e-05,56.86,,,,,,,
28849.06,5e-05,58.61,,,,,,,
28849.09,6e-05,59.66,,,,,,,
28849.09,8e-05,62.41,,,,,,,
28849.12,0.00011,65.46,,,,,,,
28849.15,0.00013,68.32,,,,,,,
28849.15,0.00016,71.11,,,,,,,
28849.18,0.00017,72.42,,,,,,,
28849.18,0.00019,73.56,,,,,,,
28849.18,0.00021,76.25,,,,,,,
28849.21,0.00024,78.82,,,,,,,
28849.25,0.00026,80.9,,,,,,,
28849.28,0.00029,83.06,,,,,,,
28849.31,0.00031,85.42,,,,,,,
28849.31,0.00034,87.2,,,,,,,
28849.34,0.00036,89.3,,,,,,,
28849.37,0.00038,90.48,,,,,,,
28849.37,0.00039,91.49,,,,,,,
28849.4,0.00041,93.38,,,,,,,
28849.43,0.00044,95.51,,,,,,,
28849.46,0.00046,97.25,,,,,,,
28849.46,0.00046,97.39,,,,,,,
28849.5,0.00049,99.55,,,,,,,
28849.53,0.00052,102.02,,,,,,,
28849.56,0.00054,103.93,,,,,,,
28849.56,0.00055,104.62,,,,,,,
28849.59,0.00057,106.41,,,,,,,
28849.62,0.00059,108.76,,,,,,,
28849.62,0.00062,111.04,,,,,,,
28849.65,0.00064,113.3,,,,,,,
28849.65,0.00065,113.44,,,,,,,
28849.68,0.00067,115.48,,,,,,,
28849.71,0.00069,118.05,,,,,,,
28849.71,0.00072,120.52,,,,,,,
28849.75,0.00075,122.81,,,,,,,
28849.78,0.00077,124.88,,,,,,,
28849.78,0.00077,125.33,,,,,,,
28849.78,0.0008,127.56,,,,,,,
28849.81,0.00082,130.29,,,,,,,
28849.81,0.00085,132.29,,,,,,,
28849.84,0.00087,134.52,,,,,,,
28849.87,0.0009,136.95,,,,,,,
28849.87,0.00091,137.79,,,,,,,
28849.87,0.00093,138.67,,,,,,,
28849.9,0.00095,140.84,,,,,,,
28849.9,0.00098,142.5,,,,,,,
28849.93,0.001,144.29,,,,,,,
28849.93,0.00103,146.17,,,,,,,
28849.96,0.00105,147.47,,,,,,,
28849.96,0.00105,147.77,,,,,,,
28850.0,0.00108,149.48,,,,,,,
28850.0,0.00111,150.94,,,,,,,
28850.03,0.00113,152.38,,,,,,,
28850.06,0.00116,153.71,,,,,,,
28850.06,0.00117,154.45,,,,,,,
28850.09,0.00118,155.15,,,,,,,
28850.09,0.00121,156.32,,,,,,,
28850.12,0.00123,157.73,,,,,,,
28850.15,0.00126,159.13,,,,,,,
28850.15,0.00128,159.7,,,,,,,
28850.15,0.00129,159.92,,,,,,,
28850.18,0.00131,160.73,,,,,,,
28850.21,0.00134,161.72,,,,,,,
28850.25,0.00136,162.73,,,,,,,
30046.81,0.00141,164.58,,,,,,,
30046.84,0.00143,165.15,,,,,,,
30046.84,0.00146,164.53,,,,,,,
30046.87,0.00147,164.0,,,,,,,
30046.9,0.00148,162.74,,,,,,,
30046.96,0.00148,149.8,,,,,,,
30047.0,0.00146,144.17,,,,,,,
30047.03,0.00143,139.19,,,,,,,
30047.03,0.00141,134.05,,,,,,,
30047.06,0.00138,128.52,,,,,,,
30047.06,0.00137,125.97,,,,,,,
30047.09,0.00136,124.31,,,,,,,
30047.09,0.00133,119.92,,,,,,,
30047.12,0.0013,115.9,,,,,,,
30047.12,0.00128,111.57,,,,,,,
30047.15,0.00125,107.71,,,,,,,
30047.18,0.00123,104.12,,,,,,,
30047.18,0.00123,103.91,,,,,,,
30047.18,0.0012,100.33,,,,,,,
30047.21,0.00117,96.53,,,,,,,
30047.25,0.00115,92.91,,,,,,,
30047.25,0.00112,88.84,,,,,,,
30047.28,0.00111,87.48,,,,,,,
30047.28,0.0011,85.45,,,,,,,
30047.31,0.00107,82.14,,,,,,,
30047.34,0.00105,77.87,,,,,,,
30047.37,0.00102,74.08,,,,,,,
30047.4,0.001,70.57,,,,,,,
30047.43,0.00097,67.03,,,,,,,
30047.46,0.00095,63.26,,,,,,,
30047.46,0.00093,61.14,,,,,,,
30047.5,0.00092,59.15,,,,,,,
30047.5,0.00089,55.79,,,,,,,
30047.53,0.00087,52.03,,,,,,,
30047.56,0.00084,49.18,,,,,,,
30047.56,0.00084,48.32,,,,,,,
30047.59,0.00082,45.67,,,,,,,
30047.62,0.00079,42.1,,,,,,,
30047.65,0.00077,39.14,,,,,,,
30047.68,0.00074,35.97,,,,,,,
30047.68,0.00074,35.65,,,,,,,
30047.68,0.00072,32.46,,,,,,,
30047.71,0.00069,28.88,,,,,,,
30047.75,0.00067,24.91,,,,,,,
30047.78,0.00066,24.15,,,,,,,
30047.78,0.00064,22.14,,,,,,,
30047.81,0.00061,18.94,,,,,,,
30047.84,0.00059,15.9,,,,,,,
30047.87,0.00056,12.34,,,,,,,
30047.9,0.00054,8.45,,,,,,,
30047.93,0.00051,5.76,,,,,,,
30047.96,0.00049,2.45,,,,,,,
30047.96,0.00047,0.72,,,,,,,
30047.96,0.00046,-0.55,,,,,,,
30048.0,0.00044,-3.91,,,,,,,
30048.03,0.00041,-7.08,,,,,,,
30048.06,0.00039,-10.06,,,,,,,
30048.06,0.00038,-10.5,,,,,,,
30048.09,0.00036,-13.29,,,,,,,
30048.12,0.00034,-15.55,,,,,,,
30048.15,0.00031,-17.66,,,,,,,
30048.15,0.0003,-18.52,,,,,,,
30048.21,0.00028,-20.23,,,,,,,
30048.25,0.00026,-22.17,,,,,,,
30048.28,0.00026,-22.49,,,,,,,
30048.31,0.00023,-25.39,,,,,,,
30048.37,0.00021,-29.88,,,,,,,
30048.37,0.0002,-31.07,,,,,,,
30048.37,0.00018,-33.31,,,,,,,
30048.4,0.00016,-36.85,,,,,,,
30048.43,0.00013,-39.93,,,,,,,
30048.43,0.00011,-42.95,,,,,,,
30048.46,8e-05,-46.08,,,,,,,
30048.46,7e-05,-46.98,,,,,,,
30048.46,5e-05,-49.0,,,,,,,
30048.5,3e-05,-51.97,,,,,,,
30048.53,0.0,-54.34,,,,,,,
30048.56,-2e-05,-57.47,,,,,,,
30048.56,-4e-05,-58.55,,,,,,,
30048.56,-5e-05,-59.41,,,,,,,
30048.59,-7e-05,-61.52,,,,,,,
30048.62,-0.0001,-64.52,,,,,,,
30048.65,-0.00012,-66.47,,,,,,,
30048.65,-0.00013,-66.58,,,,,,,
30048.68,-0.00015,-69.34,,,,,,,
30048.71,-0.00017,-71.01,,,,,,,
30048.75,-0.0002,-73.55,,,,,,,
30048.78,-0.00021,-74.36,,,,,,,
30048.78,-0.00023,-75.62,,,,,,,
30048.81,-0.00025,-77.93,,,,,,,
30048.84,-0.00028,-80.87,,,,,,,
30048.87,-0.0003,-82.78,,,,,,,
30048.87,-0.0003,-82.97,,,,,,,
30048.9,-0.00033,-85.95,,,,,,,
30048.93,-0.00035,-88.32,,,,,,,
30048.93,-0.00038,-91.79,,,,,,,
30048.96,-0.0004,-94.0,,,,,,,
30048.96,-0.00043,-96.43,,,,,,,
30049.0,-0.00045,-100.2,,,,,,,
30049.03,-0.00048,-102.6,,,,,,,
30049.03,-0.0005,-104.9,,,,,,,
30049.06,-0.00053,-107.5,,,,,,,
30049.06,-0.00055,-109.4,,,,,,,
30049.06,-0.00055,-109.5,,,,,,,
30049.09,-0.00058,-112.0,,,,,,,
30049.09,-0.00061,-115.1,,,,,,,
30049.12,-0.00063,-117.4,,,,,,,
30049.12,-0.00066,-119.3,,,,,,,
30049.15,-0.00068,-121.9,,,,,,,
30049.15,-0.0007,-123.2,,,,,,,
30049.15,-0.00071,-123.9,,,,,,,
30049.18,-0.00074,-126.1,,,,,,,
30049.21,-0.00076,-128.0,,,,,,,
30049.21,-0.00079,-129.6,,,,,,,
30049.25,-0.00081,-131.4,,,,,,,
30049.25,-0.00084,-133.5,,,,,,,
30049.25,-0.00084,-133.3,,,,,,,
30049.28,-0.00086,-134.9,,,,,,,
30049.31,-0.00089,-136.4,,,,,,,
30049.31,-0.00091,-137.8,,,,,,,
30049.34,-0.00094,-139.2,,,,,,,
30049.37,-0.00095,-140.2,,,,,,,
30049.37,-0.00097,-140.8,,,,,,,
30049.4,-0.00099,-142.1,,,,,,,
30049.43,-0.00102,-143.4,,,,,,,
30049.43,-0.00104,-144.6,,,,,,,
30049.46,-0.00106,-145.4,,,,,,,
30049.46,-0.00107,-145.8,,,,,,,
30049.5,-0.00109,-146.8,,,,,,,
30049.53,-0.00112,-147.9,,,,,,,
30049.56,-0.00114,-149.6,,,,,,,
30049.56,-0.00116,-150.3,,,,,,,
30049.56,-0.00117,-150.4,,,,,,,
30049.59,-0.00119,-152.0,,,,,,,
30049.62,-0.00122,-153.3,,,,,,,
30049.65,-0.00125,-154.5,,,,,,,
30049.65,-0.00125,-155.0,,,,,,,
30049.68,-0.00127,-155.8,,,,,,,
30049.68,-0.0013,-156.4,,,,,,,
30049.71,-0.00132,-157.7,,,,,,,
30049.75,-0.00135,-158.9,,,,,,,
30049.75,-0.00136,-159.2,,,,,,,
30049.78,-0.00137,-159.7,,,,,,,
30049.81,-0.0014,-160.7,,,,,,,
30049.81,-0.00142,-161.7,,,,,,,
30049.84,-0.00145,-161.8,,,,,,,
30049.87,-0.00146,-161.6,,,,,,,
30049.87,-0.00147,-161.0,,,,,,,
30049.96,-0.00149,-151.2,,,,,,,
30050.03,-0.00145,-138.7,,,,,,,
30050.03,-0.00142,-133.2,,,,,,,
30050.06,-0.0014,-128.8,,,,,,,
30050.06,-0.00139,-127.6,,,,,,,
30050.06,-0.00137,-124.0,,,,,,,
30050.09,-0.00134,-119.8,,,,,,,
30050.12,-0.00132,-115.2,,,,,,,
30050.12,-0.00129,-110.9,,,,,,,
30050.15,-0.00127,-107.0,,,,,,,
30050.15,-0.00125,-104.1,,,,,,,
30050.15,-0.00124,-103.0,,,,,,,
30050.18,-0.00122,-98.99,,,,,,,
30050.21,-0.00119,-95.13,,,,,,,
30050.21,-0.00117,-91.32,,,,,,,
30050.25,-0.00114,-87.76,,,,,,,
30050.25,-0.00113,-85.85,,,,,,,
30050.28,-0.00111,-83.32,,,,,,,
30050.31,-0.00109,-80.11,,,,,,,
30050.31,-0.00106,-75.81,,,,,,,
30050.34,-0.00104,-72.18,,,,,,,
30050.37,-0.00103,-71.34,,,,,,,
30050.37,-0.00101,-68.33,,,,,,,
30050.4,-0.00099,-64.55,,,,,,,
30050.43,-0.00096,-60.74,,,,,,,
30050.46,-0.00094,-57.79,,,,,,,
30050.46,-0.00094,-56.78,,,,,,,
30050.5,-0.00091,-52.98,,,,,,,
30050.53,-0.00089,-49.96,,,,,,,
30050.56,-0.00086,-46.5,,,,,,,
30050.56,-0.00085,-44.78,,,,,,,
30050.59,-0.00084,-42.72,,,,,,,
30050.59,-0.00081,-39.26,,,,,,,
30050.62,-0.00078,-35.99,,,,,,,
30050.65,-0.00076,-32.52,,,,,,,
30050.65,-0.00076,-32.12,,,,,,,
30050.68,-0.00073,-28.92,,,,,,,
30050.71,-0.00071,-25.41,,,,,,,
30050.75,-0.00068,-22.25,,,,,,,
30050.75,-0.00067,-19.84,,,,,,,
30050.78,-0.00066,-18.89,,,,,,,
30050.78,-0.00063,-15.66,,,,,,,
30050.81,-0.00061,-12.29,,,,,,,
30050.84,-0.00058,-8.42,,,,,,,
30050.87,-0.00058,-7.8,,,,,,,
30050.87,-0.00056,-5.22,,,,,,,
30050.9,-0.00053,-1.48,,,,,,,
30050.93,-0.0005,1.65,,,,,,,
30050.96,-0.00049,4.03,,,,,,,
30050.96,-0.00048,5.08,,,,,,,
30051.0,-0.00045,8.22,,,,,,,
30051.03,-0.00043,11.36,,,,,,,
30051.03,-0.0004,14.39,,,,,,,
30051.06,-0.00039,15.86,,,,,,,
30051.06,-0.00038,17.71,,,,,,,
30051.09,-0.00035,21.13,,,,,,,
30051.12,-0.00033,23.89,,,,,,,
30051.15,-0.0003,26.59,,,,,,,
30051.15,-0.0003,27.23,,,,,,,
30051.18,-0.00028,29.35,,,,,,,
30051.21,-0.00025,32.23,,,,,,,
30051.25,-0.00022,34.54,,,,,,,
30051.25,-0.0002,36.24,,,,,,,
30051.25,-0.0002,36.62,,,,,,,
30051.31,-0.00017,38.79,,,,,,,
30051.34,-0.00015,41.11,,,,,,,
30051.34,-0.00014,41.4,,,,,,,
30051.37,-0.00012,42.46,,,,,,,
30051.43,-0.0001,44.7,,,,,,,
30051.46,-8e-05,46.08,,,,,,,
30051.46,-7e-05,47.56,,,,,,,
30051.5,-5e-05,51.0,,,,,,,
30051.53,-2e-05,54.2,,,,,,,
30051.56,1e-05,57.22,,,,,,,
30051.56,1e-05,57.17,,,,,,,
30051.56,3e-05,59.76,,,,,,,
30051.59,6e-05,62.91,,,,,,,
30051.62,8e-05,65.64,,,,,,,
30051.62,0.00011,68.23,,,,,,,
30051.65,0.00013,70.3,,,,,,,
30051.65,0.00013,71.04,,,,,,,
30051.68,0.00016,73.55,,,,,,,
30051.71,0.00019,75.94,,,,,,,
30051.71,0.00021,78.29,,,,,,,
30051.75,0.00024,80.23,,,,,,,
30051.75,0.00024,80.48,,,,,,,
30051.78,0.00026,82.37,,,,,,,
30051.81,0.00029,84.24,,,,,,,
30051.84,0.00032,86.47,,,,,,,
30051.84,0.00033,87.4,,,,,,,
30051.87,0.00034,88.31,,,,,,,
30051.9,0.00037,90.4,,,,,,,
30051.93,0.00039,92.43,,,,,,,
30051.96,0.00041,94.08,,,,,,,
30051.96,0.00042,94.87,,,,,,,
30052.0,0.00044,97.0,,,,,,,
30052.03,0.00047,99.01,,,,,,,
30052.06,0.00049,101.6,,,,,,,
30052.06,0.0005,101.66,,,,,,,
30052.06,0.00052,103.93,,,,,,,
30052.09,0.00055,106.16,,,,,,,
30052.12,0.00057,108.57,,,,,,,
30052.15,0.00059,110.15,,,,,,,
30052.15,0.0006,110.67,,,,,,,
30052.18,0.00062,113.19,,,,,,,
30052.21,0.00065,115.52,,,,,,,
30052.21,0.00067,118.61,,,,,,,
30052.25,0.0007,121.5,,,,,,,
30052.25,0.00071,122.08,,,,,,,
30052.25,0.00072,123.67,,,,,,,
30052.28,0.00075,126.2,,,,,,,
30052.31,0.00077,128.48,,,,,,,
30052.31,0.0008,130.79,,,,,,,
30052.34,0.00082,132.96,,,,,,,
30052.34,0.00085,134.95,,,,,,,
30052.34,0.00085,135.34,,,,,,,
30052.37,0.00088,137.07,,,,,,,
30052.4,0.0009,139.54,,,,,,,
30052.4,0.00093,141.41,,,,,,,
30052.43,0.00095,143.62,,,,,,,
30052.43,0.00098,145.07,,,,,,,
30052.43,0.00099,146.05,,,,,,,
30052.46,0.001,146.88,,,,,,,
30052.5,0.00103,148.59,,,,,,,
30052.5,0.00106,150.25,,,,,,,
30052.53,0.00108,151.48,,,,,,,
30052.53,0.00111,153.07,,,,,,,
30052.56,0.00112,153.87,,,,,,,
30052.56,0.00113,154.5,,,,,,,
30052.59,0.00116,156.21,,,,,,,
30052.62,0.00118,157.11,,,,,,,
30052.62,0.00121,158.49,,,,,,,
30052.65,0.00122,159.23,,,,,,,
30052.65,0.00124,159.54,,,,,,,
30052.68,0.00126,160.58,,,,,,,
30052.71,0.00129,161.67,,,,,,,
30052.71,0.00131,162.83,,,,,,,
30052.75,0.00133,163.56,,,,,,,
30052.75,0.00134,163.64,,,,,,,
30052.78,0.00136,164.84,,,,,,,
52294.21,0.00141,152.94,,,,,,,
52294.21,0.00142,153.05,,,,,,,
52294.25,0.00143,153.1,,,,,,,
52294.28,0.00146,153.02,,,,,,,
52294.31,0.00148,151.03,,,,,,,
52294.34,0.00149,149.28,,,,,,,
52294.4,0.00146,136.86,,,,,,,
52294.43,0.00143,131.43,,,,,,,
52294.43,0.00143,130.92,,,,,,,
52294.43,0.0014,126.57,,,,,,,
52294.46,0.00138,122.06,,,,,,,
52294.5,0.00135,117.77,,,,,,,
52294.5,0.00133,113.88,,,,,,,
52294.53,0.0013,109.93,,,,,,,
52294.53,0.00129,108.61,,,,,,,
52294.53,0.00128,106.35,,,,,,,
52294.56,0.00125,103.06,,,,,,,
52294.56,0.00123,99.39,,,,,,,
52294.59,0.0012,95.99,,,,,,,
52294.62,0.00117,92.72,,,,,,,
52294.62,0.00116,90.64,,,,,,,
52294.62,0.00115,89.3,,,,,,,
52294.65,0.00112,85.9,,,,,,,
52294.68,0.0011,82.74,,,,,,,
52294.71,0.00107,78.95,,,,,,,
52294.71,0.00106,77.42,,,,,,,
52294.75,0.00105,76.19,,,,,,,
52294.78,0.00102,72.57,,,,,,,
52294.81,0.00099,69.02,,,,,,,
52294.81,0.00097,65.89,,,,,,,
52294.84,0.00097,65.51,,,,,,,
52294.87,0.00094,61.99,,,,,,,
52294.87,0.00092,58.86,,,,,,,
52294.9,0.00089,55.13,,,,,,,
52294.93,0.00089,54.16,,,,,,,
52294.93,0.00087,51.84,,,,,,,
52294.96,0.00084,48.84,,,,,,,
52295.0,0.00082,45.33,,,,,,,
52295.03,0.00079,42.24,,,,,,,
52295.03,0.00079,42.17,,,,,,,
52295.06,0.00077,39.04,,,,,,,
52295.09,0.00074,35.72,,,,,,,
52295.12,0.00071,32.62,,,,,,,
52295.12,0.0007,30.51,,,,,,,
52295.12,0.00069,29.56,,,,,,,
52295.15,0.00066,26.39,,,,,,,
52295.18,0.00064,23.5,,,,,,,
52295.21,0.00061,20.28,,,,,,,
52295.21,0.00061,19.23,,,,,,,
52295.25,0.00059,17.09,,,,,,,
52295.28,0.00056,14.38,,,,,,,
52295.31,0.00054,11.21,,,,,,,
52295.31,0.00051,8.46,,,,,,,
52295.31,0.00051,8.36,,,,,,,
52295.34,0.00049,5.69,,,,,,,
52295.37,0.00046,2.61,,,,,,,
52295.4,0.00044,-0.49,,,,,,,
52295.43,0.00043,-1.83,,,,,,,
52295.43,0.00041,-3.06,,,,,,,
52295.46,0.00039,-6.55,,,,,,,
52295.5,0.00036,-9.65,,,,,,,
52295.53,0.00034,-11.89,,,,,,,
52295.53,0.00033,-12.45,,,,,,,
52295.56,0.00031,-14.98,,,,,,,
52295.59,0.00028,-16.76,,,,,,,
52295.62,0.00027,-17.88,,,,,,,
52295.65,0.00026,-19.63,,,,,,,
52295.71,0.00023,-21.69,,,,,,,
52295.71,0.00022,-22.14,,,,,,,
52295.75,0.00021,-23.16,,,,,,,
52295.78,0.00018,-26.48,,,,,,,
52295.81,0.00016,-31.43,,,,,,,
52295.81,0.00015,-32.2,,,,,,,
52295.84,0.00013,-34.86,,,,,,,
52295.87,0.00011,-37.87,,,,,,,
52295.87,8e-05,-40.38,,,,,,,
52295.9,5e-05,-42.98,,,,,,,
52295.9,3e-05,-45.64,,,,,,,
52295.93,2e-05,-46.91,,,,,,,
52295.93,0.0,-48.75,,,,,,,
52295.96,-2e-05,-50.65,,,,,,,
52295.96,-5e-05,-53.19,,,,,,,
52296.0,-7e-05,-55.05,,,,,,,
52296.03,-9e-05,-56.93,,,,,,,
52296.03,-0.0001,-57.3,,,,,,,
52296.06,-0.00012,-59.36,,,,,,,
52296.09,-0.00015,-62.62,,,,,,,
52296.12,-0.00016,-64.0,,,,,,,
52296.12,-0.00017,-64.33,,,,,,,
52296.15,-0.0002,-66.28,,,,,,,
52296.18,-0.00023,-68.42,,,,,,,
52296.21,-0.00025,-70.67,,,,,,,
52296.21,-0.00026,-71.35,,,,,,,
52296.25,-0.00028,-72.94,,,,,,,
52296.28,-0.0003,-75.04,,,,,,,
52296.31,-0.00033,-77.26,,,,,,,
52296.31,-0.00034,-79.05,,,,,,,
52296.34,-0.00035,-79.92,,,,,,,
52296.34,-0.00038,-81.96,,,,,,,
52296.37,-0.0004,-84.98,,,,,,,
52296.4,-0.00043,-88.13,,,,,,,
52296.43,-0.00045,-90.53,,,,,,,
52296.43,-0.00046,-91.47,,,,,,,
52296.43,-0.00048,-94.63,,,,,,,
52296.46,-0.00051,-97.2,,,,,,,
52296.46,-0.00053,-100.1,,,,,,,
52296.5,-0.00056,-102.1,,,,,,,
52296.5,-0.00058,-104.2,,,,,,,
52296.53,-0.00061,-106.4,,,,,,,
52296.53,-0.00064,-108.9,,,,,,,
52296.56,-0.00066,-111.3,,,,,,,
52296.56,-0.00069,-113.6,,,,,,,
52296.59,-0.00071,-115.8,,,,,,,
52296.62,-0.00074,-118.4,,,,,,,
52296.62,-0.00075,-119.4,,,,,,,
52296.62,-0.00076,-120.6,,,,,,,
52296.65,-0.00079,-122.0,,,,,,,
52296.65,-0.00081,-123.3,,,,,,,
52296.68,-0.00084,-124.9,,,,,,,
52296.68,-0.00087,-126.6,,,,,,,
52296.71,-0.00089,-127.9,,,,,,,
52296.71,-0.0009,-128.6,,,,,,,
52296.75,-0.00092,-129.7,,,,,,,
52296.75,-0.00094,-131.2,,,,,,,
52296.78,-0.00097,-132.6,,,,,,,
52296.81,-0.00099,-134.2,,,,,,,
52296.81,-0.001,-134.7,,,,,,,
52296.84,-0.00102,-135.7,,,,,,,
52296.87,-0.00104,-137.4,,,,,,,
52296.9,-0.00107,-138.4,,,,,,,
52296.9,-0.0011,-139.6,,,,,,,
52296.9,-0.00111,-140.2,,,,,,,
52296.93,-0.00112,-141.2,,,,,,,
52296.96,-0.00115,-142.4,,,,,,,
52297.0,-0.00117,-143.9,,,,,,,
52297.03,-0.0012,-145.5,,,,,,,
52297.03,-0.0012,-145.5,,,,,,,
52297.03,-0.00123,-146.4,,,,,,,
52297.06,-0.00125,-148.4,,,,,,,
52297.09,-0.00128,-149.5,,,,,,,
52297.12,-0.0013,-150.6,,,,,,,
52297.12,-0.0013,-151.0,,,,,,,
52297.15,-0.00133,-152.2,,,,,,,
52297.18,-0.00135,-153.4,,,,,,,
52297.18,-0.00138,-154.5,,,,,,,
52297.21,-0.0014,-155.5,,,,,,,
52297.21,-0.0014,-155.8,,,,,,,
52297.25,-0.00143,-156.6,,,,,,,
52297.28,-0.00146,-156.9,,,,,,,
52297.31,-0.00148,-154.9,,,,,,,
52297.31,-0.00148,-154.7,,,,,,,
52297.4,-0.00145,-141.3,,,,,,,
52297.4,-0.00145,-139.1,,,,,,,
52297.43,-0.00143,-135.3,,,,,,,
52297.46,-0.0014,-130.5,,,,,,,
52297.46,-0.00138,-126.6,,,,,,,
52297.5,-0.00135,-121.2,,,,,,,
52297.5,-0.00133,-117.3,,,,,,,
52297.53,-0.00132,-116.2,,,,,,,
52297.53,-0.0013,-113.1,,,,,,,
52297.56,-0.00128,-109.4,,,,,,,
52297.56,-0.00125,-105.5,,,,,,,
52297.59,-0.00122,-102.3,,,,,,,
52297.59,-0.0012,-98.18,,,,,,,
52297.62,-0.00118,-96.1,,,,,,,
52297.62,-0.00117,-94.34,,,,,,,
52297.65,-0.00115,-91.05,,,,,,,
52297.65,-0.00112,-87.31,,,,,,,
52297.68,-0.0011,-84.37,,,,,,,
52297.71,-0.00108,-80.84,,,,,,,
52297.71,-0.00107,-80.03,,,,,,,
52297.75,-0.00105,-77.07,,,,,,,
52297.78,-0.00102,-73.06,,,,,,,
52297.81,-0.00099,-70.05,,,,,,,
52297.81,-0.00098,-68.06,,,,,,,
52297.84,-0.00097,-65.66,,,,,,,
52297.87,-0.00094,-62.15,,,,,,,
52297.87,-0.00092,-58.95,,,,,,,
52297.9,-0.00089,-56.16,,,,,,,
52297.9,-0.00089,-55.72,,,,,,,
52297.93,-0.00087,-53.0,,,,,,,
52297.96,-0.00084,-49.48,,,,,,,
52298.0,-0.00082,-46.32,,,,,,,
52298.0,-0.0008,-43.77,,,,,,,
52298.03,-0.00079,-42.94,,,,,,,
52298.06,-0.00077,-39.76,,,,,,,
52298.09,-0.00074,-36.71,,,,,,,
52298.09,-0.00072,-33.59,,,,,,,
52298.12,-0.00071,-32.38,,,,,,,
52298.12,-0.00069,-30.59,,,,,,,
52298.15,-0.00066,-26.96,,,,,,,
52298.18,-0.00064,-23.7,,,,,,,
52298.21,-0.00062,-20.86,,,,,,,
52298.21,-0.00061,-20.5,,,,,,,
52298.25,-0.00059,-17.69,,,,,,,
52298.28,-0.00056,-14.15,,,,,,,
52298.31,-0.00054,-11.31,,,,,,,
52298.31,-0.00052,-9.6,,,,,,,
52298.31,-0.00051,-8.82,,,,,,,
52298.34,-0.00049,-5.7,,,,,,,
52298.37,-0.00046,-2.89,,,,,,,
52298.4,-0.00044,-0.21,,,,,,,
52298.4,-0.00042,1.15,,,,,,,
52298.43,-0.00041,2.68,,,,,,,
52298.46,-0.00039,5.8,,,,,,,
52298.5,-0.00036,8.55,,,,,,,
52298.5,-0.00033,11.4,,,,,,,
52298.5,-0.00033,11.42,,,,,,,
52298.53,-0.00031,14.54,,,,,,,
52298.56,-0.00028,17.14,,,,,,,
52298.59,-0.00026,20.07,,,,,,,
52298.62,-0.00024,21.69,,,,,,,
52298.62,-0.00023,22.99,,,,,,,
52298.65,-0.00021,25.44,,,,,,,
52298.68,-0.00018,28.2,,,,,,,
52298.68,-0.00016,30.37,,,,,,,
52298.71,-0.00015,31.69,,,,,,,
52298.71,-0.00013,32.84,,,,,,,
52298.75,-0.00011,34.83,,,,,,,
52298.81,-8e-05,36.93,,,,,,,
52298.81,-8e-05,37.19,,,,,,,
52298.84,-6e-05,38.87,,,,,,,
52298.9,-3e-05,41.09,,,,,,,
52298.9,-3e-05,41.61,,,,,,,
52298.93,-1e-05,43.99,,,,,,,
52299.0,2e-05,47.1,,,,,,,
52299.0,4e-05,49.31,,,,,,,
52299.03,5e-05,50.54,,,,,,,
52299.03,7e-05,53.9,,,,,,,
52299.06,0.0001,56.85,,,,,,,
52299.09,0.00012,59.85,,,,,,,
52299.12,0.00015,62.55,,,,,,,
52299.12,0.00017,65.9,,,,,,,
52299.15,0.0002,68.33,,,,,,,
52299.15,0.00023,70.63,,,,,,,
52299.18,0.00025,73.11,,,,,,,
52299.21,0.00028,75.17,,,,,,,
52299.21,0.00028,75.57,,,,,,,
52299.21,0.0003,77.63,,,,,,,
52299.25,0.00033,79.77,,,,,,,
52299.28,0.00035,81.66,,,,,,,
52299.31,0.00038,83.64,,,,,,,
52299.34,0.0004,85.66,,,,,,,
52299.37,0.00043,87.45,,,,,,,
52299.4,0.00045,89.65,,,,,,,
52299.4,0.00046,89.97,,,,,,,
52299.43,0.00048,91.92,,,,,,,
52299.46,0.0005,94.28,,,,,,,
52299.5,0.00053,96.05,,,,,,,
52299.5,0.00054,97.41,,,,,,,
52299.53,0.00056,98.82,,,,,,,
52299.56,0.00058,100.8,,,,,,,
52299.59,0.00061,103.12,,,,,,,
52299.59,0.00063,105.28,,,,,,,
52299.62,0.00064,105.6,,,,,,,
52299.62,0.00066,107.79,,,,,,,
52299.65,0.00068,109.96,,,,,,,
52299.68,0.00071,112.24,,,,,,,
52299.68,0.00073,114.93,,,,,,,
52299.71,0.00075,116.16,,,,,,,
52299.71,0.00076,117.11,,,,,,,
52299.71,0.00079,119.13,,,,,,,
52299.75,0.00081,121.57,,,,,,,
52299.78,0.00084,123.65,,,,,,,
52299.78,0.00086,125.51,,,,,,,
52299.81,0.00089,127.54,,,,,,,
52299.81,0.0009,128.26,,,,,,,
52299.81,0.00091,129.38,,,,,,,
52299.84,0.00094,131.22,,,,,,,
52299.84,0.00096,133.05,,,,,,,
52299.87,0.00099,134.94,,,,,,,
52299.87,0.00102,136.53,,,,,,,
52299.9,0.00104,138.04,,,,,,,
52299.9,0.00104,138.1,,,,,,,
52299.93,0.00107,139.52,,,,,,,
52299.93,0.00109,140.87,,,,,,,
52299.96,0.00112,142.45,,,,,,,
52299.96,0.00114,143.4,,,,,,,
52300.0,0.00117,144.87,,,,,,,
52300.0,0.00117,144.52,,,,,,,
52300.03,0.0012,145.63,,,,,,,
52300.06,0.00122,146.97,,,,,,,
52300.06,0.00125,147.66,,,,,,,
52300.09,0.00127,148.57,,,,,,,
52300.09,0.00128,149.03,,,,,,,
52300.12,0.0013,149.74,,,,,,,
52300.15,0.00132,150.6,,,,,,,
52300.15,0.00135,151.25,,,,,,,
52300.18,0.00137,152.27,,,,,,,
52300.21,0.00139,152.64,,,,,,,
