time,strain,stress,temperature,type,strain_rate,max_strain,title,youngs,poissons
0.0,2e-05,12.19,850,fatigue,0.001,0.00223,416-20,153000,0.3
0.04,4e-05,15.3,,,,,,,
0.07,7e-05,18.54,,,,,,,
0.1,9e-05,22.1,,,,,,,
0.14,0.00012,25.6,,,,,,,
0.17,0.00015,29.3,,,,,,,
0.2,0.00017,33.37,,,,,,,
0.23,0.0002,37.44,,,,,,,
0.24,0.00022,40.96,,,,,,,
0.26,0.00025,44.53,,,,,,,
0.29,0.00027,48.15,,,,,,,
0.31,0.0003,51.83,,,,,,,
0.34,0.00033,55.64,,,,,,,
0.37,0.00035,59.0,,,,,,,
0.4,0.00038,62.11,,,,,,,
0.44,0.0004,65.62,,,,,,,
0.47,0.00043,69.62,,,,,,,
0.49,0.00045,73.38,,,,,,,
0.52,0.00048,77.35,,,,,,,
0.54,0.0005,80.96,,,,,,,
0.55,0.00053,84.72,,,,,,,
0.58,0.00055,88.63,,,,,,,
0.6,0.00058,92.42,,,,,,,
0.61,0.00061,95.78,,,,,,,
0.63,0.00063,99.51,,,,,,,
0.66,0.00066,103.37,,,,,,,
0.68,0.00068,106.79,,,,,,,
0.7,0.00071,110.39,,,,,,,
0.73,0.00073,114.6,,,,,,,
0.76,0.00076,118.48,,,,,,,
0.78,0.00078,122.23,,,,,,,
0.81,0.00081,125.78,,,,,,,
0.83,0.00083,129.44,,,,,,,
0.84,0.00084,130.68,,,,,,,
0.86,0.00086,133.1,,,,,,,
0.89,0.00088,136.96,,,,,,,
0.92,0.00091,141.07,,,,,,,
0.94,0.00094,144.66,,,,,,,
0.97,0.00096,148.55,,,,,,,
1.0,0.00099,152.44,,,,,,,
1.02,0.00101,156.46,,,,,,,
1.04,0.00104,159.66,,,,,,,
1.07,0.00106,162.82,,,,,,,
1.09,0.00109,165.48,,,,,,,
1.11,0.00111,167.6,,,,,,,
1.12,0.00114,168.81,,,,,,,
1.13,0.00117,169.12,,,,,,,
1.13,0.0012,169.16,,,,,,,
1.14,0.00123,169.22,,,,,,,
1.14,0.00126,169.27,,,,,,,
1.14,0.00128,169.31,,,,,,,
1.14,0.00131,169.34,,,,,,,
1.15,0.00134,169.37,,,,,,,
1.15,0.00136,169.43,,,,,,,
1.16,0.00139,169.43,,,,,,,
1.16,0.00142,169.38,,,,,,,
1.17,0.00144,168.95,,,,,,,
1.23,0.00142,157.97,,,,,,,
1.25,0.00139,153.56,,,,,,,
1.27,0.00137,149.57,,,,,,,
1.29,0.00134,145.38,,,,,,,
1.41,0.00137,149.47,,,,,,,
1.43,0.00139,153.45,,,,,,,
1.45,0.00142,157.32,,,,,,,
1.47,0.00144,160.89,,,,,,,
1.49,0.00147,164.6,,,,,,,
1.51,0.0015,167.92,,,,,,,
1.53,0.00152,170.91,,,,,,,
1.55,0.00155,173.25,,,,,,,
1.65,0.00152,165.63,,,,,,,
1.67,0.0015,161.48,,,,,,,
1.69,0.00147,157.45,,,,,,,
1.71,0.00144,153.46,,,,,,,
1.72,0.00142,149.65,,,,,,,
1.74,0.00139,145.85,,,,,,,
1.76,0.00137,141.97,,,,,,,
1.78,0.00134,138.06,,,,,,,
1.8,0.00132,134.27,,,,,,,
1.83,0.00129,130.22,,,,,,,
1.84,0.00127,127.53,,,,,,,
1.85,0.00127,126.4,,,,,,,
1.88,0.00124,122.71,,,,,,,
1.91,0.00121,118.61,,,,,,,
1.94,0.00119,114.57,,,,,,,
1.97,0.00116,110.54,,,,,,,
2.0,0.00114,106.25,,,,,,,
2.04,0.00111,101.8,,,,,,,
2.06,0.00109,97.71,,,,,,,
2.09,0.00106,93.58,,,,,,,
2.12,0.00104,89.12,,,,,,,
2.15,0.00101,84.8,,,,,,,
2.17,0.00098,81.15,,,,,,,
2.2,0.00096,77.72,,,,,,,
2.22,0.00093,74.02,,,,,,,
2.25,0.00091,70.49,,,,,,,
2.27,0.00088,67.23,,,,,,,
2.29,0.00086,64.11,,,,,,,
2.32,0.00083,60.83,,,,,,,
2.35,0.00081,56.97,,,,,,,
2.38,0.00078,53.16,,,,,,,
2.41,0.00075,49.63,,,,,,,
2.44,0.00073,46.01,,,,,,,
2.47,0.0007,42.41,,,,,,,
2.5,0.00068,38.8,,,,,,,
2.52,0.00065,35.1,,,,,,,
2.55,0.00063,31.23,,,,,,,
2.58,0.0006,26.91,,,,,,,
2.61,0.00058,22.62,,,,,,,
2.64,0.00055,18.3,,,,,,,
2.67,0.00053,14.63,,,,,,,
2.69,0.0005,11.05,,,,,,,
2.71,0.00048,7.45,,,,,,,
2.74,0.00045,3.57,,,,,,,
2.77,0.00043,-0.33,,,,,,,
2.79,0.0004,-4.14,,,,,,,
2.82,0.00037,-7.57,,,,,,,
2.84,0.00035,-10.72,,,,,,,
2.85,0.00035,-11.13,,,,,,,
2.87,0.00032,-14.61,,,,,,,
2.9,0.0003,-17.72,,,,,,,
2.94,0.00027,-20.1,,,,,,,
3.07,0.00025,-24.04,,,,,,,
3.1,0.00022,-28.06,,,,,,,
3.13,0.0002,-31.56,,,,,,,
3.15,0.00017,-35.3,,,,,,,
3.18,0.00015,-39.59,,,,,,,
3.2,0.00012,-44.33,,,,,,,
3.22,9e-05,-48.54,,,,,,,
3.23,7e-05,-52.45,,,,,,,
3.25,4e-05,-56.12,,,,,,,
3.26,2e-05,-59.65,,,,,,,
3.28,-1e-05,-63.35,,,,,,,
3.3,-3e-05,-67.13,,,,,,,
3.33,-6e-05,-71.01,,,,,,,
3.36,-8e-05,-74.62,,,,,,,
3.38,-0.00011,-78.65,,,,,,,
3.4,-0.00014,-82.58,,,,,,,
3.42,-0.00016,-86.4,,,,,,,
3.43,-0.00019,-90.27,,,,,,,
3.45,-0.00021,-94.02,,,,,,,
3.47,-0.00024,-97.85,,,,,,,
3.49,-0.00027,-101.59,,,,,,,
3.5,-0.00029,-105.19,,,,,,,
3.52,-0.00032,-108.61,,,,,,,
3.54,-0.00034,-112.0,,,,,,,
3.56,-0.00037,-115.48,,,,,,,
3.58,-0.00039,-118.31,,,,,,,
3.6,-0.00042,-121.16,,,,,,,
3.62,-0.00045,-123.72,,,,,,,
3.64,-0.00047,-126.31,,,,,,,
3.66,-0.0005,-128.61,,,,,,,
3.68,-0.00052,-130.79,,,,,,,
3.71,-0.00055,-132.92,,,,,,,
3.73,-0.00057,-134.96,,,,,,,
3.76,-0.0006,-137.09,,,,,,,
3.79,-0.00062,-139.29,,,,,,,
3.82,-0.00065,-141.14,,,,,,,
3.84,-0.00068,-142.89,,,,,,,
3.84,-0.00068,-143.02,,,,,,,
3.86,-0.0007,-144.5,,,,,,,
3.88,-0.00073,-145.92,,,,,,,
3.91,-0.00075,-147.4,,,,,,,
3.93,-0.00078,-148.81,,,,,,,
3.95,-0.0008,-150.18,,,,,,,
3.98,-0.00083,-151.64,,,,,,,
4.01,-0.00086,-153.23,,,,,,,
4.05,-0.00088,-155.04,,,,,,,
4.08,-0.00091,-156.79,,,,,,,
4.1,-0.00093,-158.13,,,,,,,
4.12,-0.00096,-159.2,,,,,,,
4.14,-0.00098,-160.16,,,,,,,
4.15,-0.00101,-160.98,,,,,,,
4.17,-0.00103,-161.71,,,,,,,
4.18,-0.00106,-162.37,,,,,,,
4.21,-0.00108,-163.18,,,,,,,
4.28,-0.00111,-164.37,,,,,,,
4.34,-0.00114,-167.37,,,,,,,
4.37,-0.00116,-169.82,,,,,,,
4.38,-0.00119,-170.12,,,,,,,
4.39,-0.00121,-169.45,,,,,,,
4.39,-0.00125,-169.46,,,,,,,
4.39,-0.00127,-169.55,,,,,,,
4.39,-0.0013,-169.65,,,,,,,
4.4,-0.00133,-169.77,,,,,,,
4.4,-0.00136,-169.87,,,,,,,
4.4,-0.00138,-170.1,,,,,,,
4.41,-0.00141,-170.61,,,,,,,
4.42,-0.00144,-170.63,,,,,,,
4.51,-0.00141,-159.75,,,,,,,
4.54,-0.00139,-156.14,,,,,,,
4.66,-0.00141,-161.66,,,,,,,
4.68,-0.00144,-165.07,,,,,,,
4.7,-0.00146,-168.59,,,,,,,
4.72,-0.00149,-172.22,,,,,,,
4.75,-0.00151,-175.49,,,,,,,
4.78,-0.00154,-171.46,,,,,,,
4.78,-0.00158,-171.43,,,,,,,
4.78,-0.00162,-171.42,,,,,,,
4.78,-0.00167,-171.4,,,,,,,
4.78,-0.00172,-171.35,,,,,,,
4.79,-0.00176,-171.38,,,,,,,
4.79,-0.00178,-171.35,,,,,,,
4.82,-0.00176,-165.75,,,,,,,
4.84,-0.00173,-160.3,,,,,,,
4.84,-0.00171,-157.21,,,,,,,
4.85,-0.00171,-155.77,,,,,,,
4.85,-0.00168,-151.38,,,,,,,
4.86,-0.00165,-147.19,,,,,,,
4.87,-0.00162,-143.04,,,,,,,
4.88,-0.0016,-138.8,,,,,,,
4.88,-0.00157,-134.98,,,,,,,
4.89,-0.00155,-130.83,,,,,,,
4.9,-0.00152,-127.25,,,,,,,
4.91,-0.00149,-123.29,,,,,,,
4.92,-0.00147,-119.54,,,,,,,
4.92,-0.00144,-116.04,,,,,,,
4.93,-0.00141,-112.23,,,,,,,
4.94,-0.00139,-108.46,,,,,,,
4.95,-0.00136,-105.04,,,,,,,
4.96,-0.00134,-101.31,,,,,,,
4.98,-0.00131,-97.9,,,,,,,
4.99,-0.00128,-94.45,,,,,,,
5.01,-0.00126,-91.14,,,,,,,
5.04,-0.00123,-87.59,,,,,,,
5.09,-0.00121,-83.77,,,,,,,
5.14,-0.00118,-79.63,,,,,,,
5.18,-0.00116,-76.21,,,,,,,
5.21,-0.00113,-72.39,,,,,,,
5.25,-0.00111,-67.51,,,,,,,
5.28,-0.00108,-63.12,,,,,,,
5.3,-0.00106,-58.67,,,,,,,
5.33,-0.00103,-54.65,,,,,,,
5.35,-0.001,-50.75,,,,,,,
5.38,-0.00098,-46.6,,,,,,,
5.41,-0.00095,-42.82,,,,,,,
5.43,-0.00093,-39.19,,,,,,,
5.46,-0.0009,-35.17,,,,,,,
5.48,-0.00088,-31.32,,,,,,,
5.51,-0.00085,-27.55,,,,,,,
5.54,-0.00083,-23.85,,,,,,,
5.56,-0.0008,-20.12,,,,,,,
5.58,-0.00078,-16.89,,,,,,,
5.62,-0.00075,-12.61,,,,,,,
5.65,-0.00072,-8.39,,,,,,,
5.68,-0.0007,-4.39,,,,,,,
5.71,-0.00067,0.04,,,,,,,
5.74,-0.00065,4.35,,,,,,,
5.77,-0.00062,8.65,,,,,,,
5.8,-0.0006,12.93,,,,,,,
5.83,-0.00057,17.19,,,,,,,
5.84,-0.00056,19.95,,,,,,,
5.85,-0.00055,21.42,,,,,,,
5.88,-0.00052,25.24,,,,,,,
5.91,-0.0005,28.8,,,,,,,
5.95,-0.00047,32.06,,,,,,,
6.0,-0.00045,35.74,,,,,,,
6.04,-0.00042,39.7,,,,,,,
6.07,-0.00039,43.44,,,,,,,
6.1,-0.00037,47.2,,,,,,,
6.13,-0.00034,51.47,,,,,,,
6.15,-0.00032,55.38,,,,,,,
6.17,-0.00029,59.04,,,,,,,
6.19,-0.00027,62.61,,,,,,,
6.21,-0.00024,66.55,,,,,,,
6.23,-0.00022,70.31,,,,,,,
6.26,-0.00019,73.78,,,,,,,
6.29,-0.00017,77.39,,,,,,,
6.32,-0.00014,80.42,,,,,,,
6.35,-0.00012,83.22,,,,,,,
6.4,-9e-05,86.8,,,,,,,
6.43,-6e-05,90.25,,,,,,,
6.46,-4e-05,93.77,,,,,,,
6.5,-1e-05,98.29,,,,,,,
6.52,1e-05,102.92,,,,,,,
6.54,4e-05,107.05,,,,,,,
6.56,6e-05,111.1,,,,,,,
6.58,9e-05,114.8,,,,,,,
6.59,0.00012,118.21,,,,,,,
6.6,0.00014,121.44,,,,,,,
6.62,0.00017,124.22,,,,,,,
6.63,0.00019,126.66,,,,,,,
6.64,0.00022,128.89,,,,,,,
6.65,0.00024,130.82,,,,,,,
6.66,0.00027,132.51,,,,,,,
6.67,0.0003,133.77,,,,,,,
6.68,0.00032,134.99,,,,,,,
6.69,0.00035,136.09,,,,,,,
6.7,0.00037,137.18,,,,,,,
6.71,0.0004,138.37,,,,,,,
6.74,0.00042,139.4,,,,,,,
6.84,0.00045,140.44,,,,,,,
6.84,0.00045,140.51,,,,,,,
6.9,0.00048,144.42,,,,,,,
6.93,0.0005,148.08,,,,,,,
6.95,0.00053,150.19,,,,,,,
6.96,0.00055,149.52,,,,,,,
6.96,0.00058,149.71,,,,,,,
6.97,0.00062,149.96,,,,,,,
6.97,0.00065,150.19,,,,,,,
6.97,0.00067,150.38,,,,,,,
6.97,0.00071,150.66,,,,,,,
6.98,0.00073,151.38,,,,,,,
6.99,0.00076,152.0,,,,,,,
7.01,0.00078,152.2,,,,,,,
7.09,0.00076,145.8,,,,,,,
7.23,0.00078,150.86,,,,,,,
7.25,0.00081,154.7,,,,,,,
7.28,0.00083,158.32,,,,,,,
7.29,0.00086,161.45,,,,,,,
7.31,0.00089,163.37,,,,,,,
7.32,0.00091,163.5,,,,,,,
7.32,0.00094,163.76,,,,,,,
7.33,0.00097,163.91,,,,,,,
7.33,0.00101,164.16,,,,,,,
7.33,0.00104,164.42,,,,,,,
7.33,0.00106,164.53,,,,,,,
7.34,0.0011,164.28,,,,,,,
7.34,0.00113,163.11,,,,,,,
7.34,0.00116,163.14,,,,,,,
7.35,0.00119,163.32,,,,,,,
7.35,0.00122,163.53,,,,,,,
7.35,0.00125,163.73,,,,,,,
7.42,0.00123,154.95,,,,,,,
7.43,0.0012,150.8,,,,,,,
7.45,0.00118,147.11,,,,,,,
7.46,0.00115,143.2,,,,,,,
7.48,0.00112,139.42,,,,,,,
7.51,0.0011,136.16,,,,,,,
7.59,0.00112,141.42,,,,,,,
7.62,0.00115,146.04,,,,,,,
7.63,0.00118,150.03,,,,,,,
7.65,0.0012,153.93,,,,,,,
7.67,0.00123,157.94,,,,,,,
7.69,0.00126,161.66,,,,,,,
7.71,0.00128,165.38,,,,,,,
7.73,0.00131,169.01,,,,,,,
7.75,0.00133,172.3,,,,,,,
7.76,0.00136,175.04,,,,,,,
7.78,0.00139,172.4,,,,,,,
7.78,0.00143,172.62,,,,,,,
7.78,0.00146,172.79,,,,,,,
7.79,0.00151,172.97,,,,,,,
7.79,0.00154,173.07,,,,,,,
7.79,0.00156,173.17,,,,,,,
7.79,0.00161,173.4,,,,,,,
7.79,0.00164,173.59,,,,,,,
7.79,0.00167,173.92,,,,,,,
7.81,0.0017,174.15,,,,,,,
7.82,0.00172,173.72,,,,,,,
7.84,0.00173,170.63,,,,,,,
7.87,0.0017,164.06,,,,,,,
7.88,0.00167,159.91,,,,,,,
7.89,0.00165,156.01,,,,,,,
7.91,0.00162,152.0,,,,,,,
7.92,0.00159,148.34,,,,,,,
7.94,0.00157,144.88,,,,,,,
7.96,0.00154,142.01,,,,,,,
8.05,0.00157,147.24,,,,,,,
8.08,0.00159,150.05,,,,,,,
8.21,0.00157,142.6,,,,,,,
8.23,0.00154,138.25,,,,,,,
8.25,0.00152,134.11,,,,,,,
8.27,0.00149,130.09,,,,,,,
8.29,0.00147,126.07,,,,,,,
8.32,0.00144,122.04,,,,,,,
8.34,0.00142,118.04,,,,,,,
8.36,0.00139,114.0,,,,,,,
8.39,0.00136,109.91,,,,,,,
8.41,0.00134,105.93,,,,,,,
8.44,0.00131,102.41,,,,,,,
8.46,0.00129,98.83,,,,,,,
8.49,0.00126,95.33,,,,,,,
8.52,0.00124,91.68,,,,,,,
8.54,0.00121,87.98,,,,,,,
8.58,0.00119,84.05,,,,,,,
8.6,0.00116,80.3,,,,,,,
8.63,0.00113,76.43,,,,,,,
8.66,0.00111,72.61,,,,,,,
8.69,0.00108,68.97,,,,,,,
8.72,0.00106,65.19,,,,,,,
8.74,0.00103,61.34,,,,,,,
8.77,0.00101,57.69,,,,,,,
8.79,0.00098,54.47,,,,,,,
8.82,0.00096,51.0,,,,,,,
8.84,0.00094,47.84,,,,,,,
8.85,0.00093,47.08,,,,,,,
8.88,0.00091,43.57,,,,,,,
8.9,0.00088,40.0,,,,,,,
8.93,0.00085,36.35,,,,,,,
8.96,0.00083,32.83,,,,,,,
8.99,0.0008,29.14,,,,,,,
9.01,0.00078,25.56,,,,,,,
9.04,0.00075,22.34,,,,,,,
9.07,0.00073,18.56,,,,,,,
9.09,0.0007,14.77,,,,,,,
9.12,0.00068,11.4,,,,,,,
9.15,0.00065,7.91,,,,,,,
9.17,0.00063,4.21,,,,,,,
9.2,0.0006,0.59,,,,,,,
9.23,0.00057,-3.02,,,,,,,
9.26,0.00055,-7.05,,,,,,,
9.29,0.00052,-10.61,,,,,,,
9.31,0.0005,-13.89,,,,,,,
9.34,0.00047,-17.18,,,,,,,
9.39,0.00045,-20.18,,,,,,,
9.5,0.00042,-23.9,,,,,,,
9.54,0.0004,-27.53,,,,,,,
9.57,0.00037,-30.95,,,,,,,
9.59,0.00035,-34.24,,,,,,,
9.62,0.00032,-37.65,,,,,,,
9.65,0.0003,-41.61,,,,,,,
9.67,0.00027,-45.7,,,,,,,
9.69,0.00024,-49.79,,,,,,,
9.71,0.00022,-53.69,,,,,,,
9.72,0.00019,-56.96,,,,,,,
9.73,0.00017,-60.61,,,,,,,
9.74,0.00014,-63.78,,,,,,,
9.76,0.00012,-67.07,,,,,,,
9.78,9e-05,-70.46,,,,,,,
9.79,6e-05,-74.12,,,,,,,
9.81,4e-05,-77.87,,,,,,,
9.83,1e-05,-81.68,,,,,,,
9.84,-0.0,-83.93,,,,,,,
9.85,-1e-05,-85.27,,,,,,,
9.87,-4e-05,-88.92,,,,,,,
9.89,-7e-05,-92.21,,,,,,,
9.9,-9e-05,-95.49,,,,,,,
9.92,-0.00012,-98.72,,,,,,,
9.94,-0.00014,-102.05,,,,,,,
9.96,-0.00017,-105.41,,,,,,,
9.99,-0.00019,-108.77,,,,,,,
10.01,-0.00022,-112.3,,,,,,,
10.04,-0.00025,-115.63,,,,,,,
10.06,-0.00027,-118.8,,,,,,,
10.09,-0.0003,-121.65,,,,,,,
10.11,-0.00032,-124.3,,,,,,,
10.13,-0.00035,-126.72,,,,,,,
10.15,-0.00037,-129.25,,,,,,,
10.18,-0.0004,-131.53,,,,,,,
10.2,-0.00042,-133.39,,,,,,,
10.22,-0.00045,-135.19,,,,,,,
10.24,-0.00047,-136.85,,,,,,,
10.26,-0.0005,-138.28,,,,,,,
10.29,-0.00052,-139.84,,,,,,,
10.31,-0.00055,-141.31,,,,,,,
10.34,-0.00058,-142.65,,,,,,,
10.37,-0.0006,-144.23,,,,,,,
10.41,-0.00063,-146.11,,,,,,,
10.44,-0.00065,-147.95,,,,,,,
10.46,-0.00068,-149.27,,,,,,,
10.48,-0.0007,-150.07,,,,,,,
10.49,-0.00073,-150.64,,,,,,,
10.5,-0.00076,-151.03,,,,,,,
10.51,-0.00078,-151.54,,,,,,,
10.52,-0.00081,-152.05,,,,,,,
10.54,-0.00083,-152.46,,,,,,,
10.67,-0.00086,-153.33,,,,,,,
10.71,-0.00089,-156.49,,,,,,,
10.74,-0.00091,-159.58,,,,,,,
10.76,-0.00094,-161.3,,,,,,,
10.77,-0.00096,-161.3,,,,,,,
10.77,-0.00099,-161.26,,,,,,,
10.78,-0.00102,-161.21,,,,,,,
10.78,-0.00105,-160.87,,,,,,,
10.79,-0.00107,-160.84,,,,,,,
10.79,-0.0011,-161.06,,,,,,,
10.79,-0.00113,-161.33,,,,,,,
10.79,-0.00117,-161.58,,,,,,,
10.8,-0.00119,-161.8,,,,,,,
10.81,-0.00122,-162.34,,,,,,,
10.84,-0.00123,-160.99,,,,,,,
10.89,-0.00119,-153.53,,,,,,,
10.91,-0.00117,-150.13,,,,,,,
10.95,-0.00114,-146.93,,,,,,,
11.04,-0.00117,-152.19,,,,,,,
11.06,-0.00119,-156.2,,,,,,,
11.08,-0.00122,-159.83,,,,,,,
11.1,-0.00124,-163.66,,,,,,,
11.12,-0.00127,-167.1,,,,,,,
11.13,-0.0013,-170.37,,,,,,,
11.15,-0.00132,-173.04,,,,,,,
11.16,-0.00135,-171.06,,,,,,,
11.16,-0.00139,-171.3,,,,,,,
11.17,-0.00143,-171.5,,,,,,,
11.17,-0.00147,-171.73,,,,,,,
11.17,-0.0015,-171.82,,,,,,,
11.17,-0.00155,-172.02,,,,,,,
11.17,-0.00159,-172.21,,,,,,,
11.17,-0.00162,-172.42,,,,,,,
11.18,-0.00164,-172.57,,,,,,,
11.19,-0.00167,-171.26,,,,,,,
11.19,-0.0017,-170.92,,,,,,,
11.19,-0.00172,-170.8,,,,,,,
11.2,-0.00175,-170.67,,,,,,,
11.25,-0.00173,-159.44,,,,,,,
11.26,-0.0017,-154.88,,,,,,,
11.27,-0.00167,-151.09,,,,,,,
11.28,-0.00165,-146.9,,,,,,,
11.29,-0.00162,-143.02,,,,,,,
11.3,-0.00159,-139.19,,,,,,,
11.32,-0.00157,-135.59,,,,,,,
11.33,-0.00154,-132.27,,,,,,,
11.35,-0.00152,-129.56,,,,,,,
11.43,-0.00154,-135.08,,,,,,,
11.45,-0.00157,-138.86,,,,,,,
11.48,-0.00159,-142.31,,,,,,,
11.52,-0.00162,-144.72,,,,,,,
11.59,-0.00159,-138.88,,,,,,,
11.62,-0.00156,-134.37,,,,,,,
11.64,-0.00154,-130.44,,,,,,,
11.66,-0.00151,-126.31,,,,,,,
11.68,-0.00149,-122.16,,,,,,,
11.7,-0.00146,-118.13,,,,,,,
11.71,-0.00144,-114.38,,,,,,,
11.73,-0.00141,-110.91,,,,,,,
11.75,-0.00139,-107.52,,,,,,,
11.77,-0.00136,-104.09,,,,,,,
11.8,-0.00133,-100.21,,,,,,,
11.83,-0.00131,-96.19,,,,,,,
11.84,-0.0013,-94.69,,,,,,,
11.87,-0.00128,-91.78,,,,,,,
11.89,-0.00126,-87.91,,,,,,,
11.92,-0.00123,-84.12,,,,,,,
11.95,-0.00121,-80.01,,,,,,,
11.98,-0.00118,-76.1,,,,,,,
12.01,-0.00116,-71.81,,,,,,,
12.04,-0.00113,-67.75,,,,,,,
12.07,-0.00111,-63.79,,,,,,,
12.1,-0.00108,-59.75,,,,,,,
12.12,-0.00106,-56.17,,,,,,,
12.14,-0.00103,-52.56,,,,,,,
12.17,-0.001,-48.96,,,,,,,
12.2,-0.00098,-44.67,,,,,,,
12.23,-0.00095,-40.6,,,,,,,
12.26,-0.00093,-36.61,,,,,,,
12.29,-0.0009,-32.61,,,,,,,
12.31,-0.00088,-28.59,,,,,,,
12.34,-0.00085,-24.67,,,,,,,
12.37,-0.00083,-20.4,,,,,,,
12.4,-0.0008,-16.12,,,,,,,
12.42,-0.00078,-12.21,,,,,,,
12.45,-0.00075,-8.58,,,,,,,
12.47,-0.00072,-4.81,,,,,,,
12.5,-0.0007,-0.73,,,,,,,
12.53,-0.00067,3.16,,,,,,,
12.56,-0.00065,7.03,,,,,,,
12.58,-0.00062,10.62,,,,,,,
12.6,-0.0006,13.83,,,,,,,
12.63,-0.00057,17.57,,,,,,,
12.66,-0.00055,21.14,,,,,,,
12.69,-0.00052,24.75,,,,,,,
12.71,-0.0005,27.71,,,,,,,
12.75,-0.00047,30.07,,,,,,,
12.81,-0.00045,33.82,,,,,,,
12.84,-0.00043,36.77,,,,,,,
12.85,-0.00042,38.07,,,,,,,
12.88,-0.0004,42.21,,,,,,,
12.92,-0.00037,46.07,,,,,,,
12.94,-0.00034,50.94,,,,,,,
12.96,-0.00032,54.79,,,,,,,
12.98,-0.00029,58.29,,,,,,,
13.0,-0.00027,61.96,,,,,,,
13.02,-0.00024,65.71,,,,,,,
13.04,-0.00022,69.12,,,,,,,
13.07,-0.00019,72.39,,,,,,,
27.94,-0.00019,87.02,,,,,,,
27.97,-0.00016,90.49,,,,,,,
28.0,-0.00014,94.07,,,,,,,
28.03,-0.00011,97.59,,,,,,,
28.06,-9e-05,101.29,,,,,,,
28.08,-6e-05,105.21,,,,,,,
28.1,-4e-05,108.72,,,,,,,
28.12,-1e-05,112.53,,,,,,,
28.13,1e-05,115.9,,,,,,,
28.15,4e-05,119.49,,,,,,,
28.17,7e-05,123.04,,,,,,,
28.18,9e-05,126.38,,,,,,,
28.2,0.00012,129.81,,,,,,,
28.22,0.00014,133.01,,,,,,,
28.23,0.00017,136.06,,,,,,,
28.25,0.0002,138.89,,,,,,,
28.27,0.00022,141.44,,,,,,,
28.29,0.00025,143.81,,,,,,,
28.3,0.00027,145.47,,,,,,,
28.31,0.0003,146.59,,,,,,,
28.32,0.00032,147.48,,,,,,,
28.33,0.00035,148.24,,,,,,,
28.34,0.00038,148.97,,,,,,,
28.36,0.0004,149.72,,,,,,,
28.38,0.00043,150.21,,,,,,,
28.5,0.00045,150.89,,,,,,,
28.54,0.00048,154.21,,,,,,,
28.57,0.0005,157.54,,,,,,,
28.6,0.00053,160.26,,,,,,,
28.61,0.00056,161.57,,,,,,,
28.62,0.00059,160.96,,,,,,,
28.62,0.00061,160.5,,,,,,,
28.62,0.00065,160.07,,,,,,,
28.63,0.00067,160.06,,,,,,,
28.63,0.00071,160.13,,,,,,,
28.63,0.00074,160.28,,,,,,,
28.63,0.00078,160.45,,,,,,,
28.63,0.00081,160.64,,,,,,,
28.64,0.00084,160.82,,,,,,,
28.64,0.00087,161.06,,,,,,,
28.66,0.0009,161.48,,,,,,,
28.7,0.00087,153.46,,,,,,,
28.72,0.00085,149.5,,,,,,,
28.73,0.00082,145.57,,,,,,,
28.75,0.00079,141.72,,,,,,,
28.76,0.00077,138.17,,,,,,,
28.79,0.00074,134.89,,,,,,,
28.84,0.00073,135.06,,,,,,,
28.89,0.00077,141.52,,,,,,,
28.91,0.00079,145.71,,,,,,,
28.93,0.00082,149.87,,,,,,,
28.94,0.00085,153.56,,,,,,,
28.96,0.00087,157.56,,,,,,,
28.98,0.0009,161.28,,,,,,,
29.0,0.00092,164.8,,,,,,,
29.01,0.00095,168.37,,,,,,,
29.03,0.00098,170.59,,,,,,,
29.05,0.001,171.79,,,,,,,
29.06,0.00103,172.85,,,,,,,
29.07,0.00105,173.62,,,,,,,
29.07,0.00108,173.4,,,,,,,
29.08,0.00111,173.3,,,,,,,
29.08,0.00114,173.32,,,,,,,
29.08,0.00117,173.39,,,,,,,
29.08,0.00121,173.47,,,,,,,
29.09,0.00124,173.47,,,,,,,
29.09,0.00127,173.48,,,,,,,
29.09,0.0013,173.44,,,,,,,
29.1,0.00133,173.38,,,,,,,
29.1,0.00135,173.3,,,,,,,
29.11,0.00138,173.11,,,,,,,
29.16,0.00136,163.05,,,,,,,
29.17,0.00133,158.96,,,,,,,
29.18,0.0013,155.23,,,,,,,
29.19,0.00128,151.53,,,,,,,
29.21,0.00125,148.04,,,,,,,
29.22,0.00123,144.81,,,,,,,
29.24,0.0012,141.64,,,,,,,
29.27,0.00118,139.4,,,,,,,
29.33,0.0012,145.57,,,,,,,
29.35,0.00123,149.53,,,,,,,
29.37,0.00125,153.62,,,,,,,
29.38,0.00128,157.57,,,,,,,
29.4,0.00131,161.37,,,,,,,
29.42,0.00133,165.01,,,,,,,
29.43,0.00136,168.58,,,,,,,
29.45,0.00138,172.45,,,,,,,
29.47,0.00141,175.97,,,,,,,
29.49,0.00143,179.41,,,,,,,
29.5,0.00146,177.6,,,,,,,
29.5,0.0015,178.06,,,,,,,
29.51,0.00153,178.28,,,,,,,
29.51,0.00157,178.57,,,,,,,
29.51,0.0016,178.86,,,,,,,
29.51,0.00164,179.26,,,,,,,
29.54,0.00166,180.94,,,,,,,
29.65,0.00164,172.29,,,,,,,
29.75,0.00166,174.65,,,,,,,
29.77,0.00169,177.94,,,,,,,
29.8,0.00171,181.22,,,,,,,
29.82,0.00174,184.4,,,,,,,
29.84,0.00177,185.76,,,,,,,
29.84,0.00178,178.45,,,,,,,
29.84,0.00179,178.71,,,,,,,
29.85,0.00182,179.15,,,,,,,
29.85,0.00185,179.4,,,,,,,
29.85,0.00189,179.61,,,,,,,
29.85,0.00193,179.96,,,,,,,
29.86,0.00196,180.4,,,,,,,
29.89,0.00198,183.04,,,,,,,
30.02,0.00196,174.36,,,,,,,
30.06,0.00193,170.23,,,,,,,
30.09,0.00191,166.04,,,,,,,
30.11,0.00188,161.77,,,,,,,
30.14,0.00186,157.87,,,,,,,
30.16,0.00183,153.95,,,,,,,
30.18,0.00181,150.25,,,,,,,
30.21,0.00178,146.55,,,,,,,
30.23,0.00175,142.62,,,,,,,
30.25,0.00173,138.84,,,,,,,
30.28,0.0017,135.15,,,,,,,
30.3,0.00168,131.53,,,,,,,
30.33,0.00165,128.08,,,,,,,
30.36,0.00163,124.56,,,,,,,
30.38,0.0016,121.04,,,,,,,
30.41,0.00158,117.39,,,,,,,
30.44,0.00155,113.86,,,,,,,
30.47,0.00152,110.45,,,,,,,
30.49,0.0015,107.32,,,,,,,
30.52,0.00147,103.99,,,,,,,
30.55,0.00145,100.06,,,,,,,
30.58,0.00142,96.59,,,,,,,
30.61,0.0014,93.14,,,,,,,
30.63,0.00137,89.5,,,,,,,
30.67,0.00135,85.52,,,,,,,
30.69,0.00132,81.96,,,,,,,
30.72,0.00129,78.41,,,,,,,
30.75,0.00127,74.96,,,,,,,
30.77,0.00124,71.5,,,,,,,
30.8,0.00122,68.08,,,,,,,
30.83,0.00119,64.58,,,,,,,
30.84,0.00118,62.24,,,,,,,
30.85,0.00117,61.04,,,,,,,
30.88,0.00114,57.85,,,,,,,
30.91,0.00112,54.02,,,,,,,
30.94,0.00109,50.35,,,,,,,
30.97,0.00106,46.73,,,,,,,
30.99,0.00104,43.2,,,,,,,
31.02,0.00101,39.4,,,,,,,
31.05,0.00099,36.02,,,,,,,
31.07,0.00096,32.61,,,,,,,
31.1,0.00094,29.24,,,,,,,
31.12,0.00091,26.06,,,,,,,
31.15,0.00089,22.75,,,,,,,
31.18,0.00086,19.05,,,,,,,
31.21,0.00084,15.35,,,,,,,
31.24,0.00081,11.91,,,,,,,
31.26,0.00078,8.57,,,,,,,
31.29,0.00076,5.24,,,,,,,
31.32,0.00073,1.73,,,,,,,
31.34,0.00071,-1.56,,,,,,,
31.37,0.00068,-4.92,,,,,,,
31.39,0.00066,-7.94,,,,,,,
31.42,0.00063,-11.28,,,,,,,
31.45,0.00061,-14.88,,,,,,,
31.5,0.00058,-18.21,,,,,,,
31.6,0.00055,-21.29,,,,,,,
31.64,0.00053,-24.87,,,,,,,
31.68,0.0005,-28.47,,,,,,,
31.71,0.00048,-32.3,,,,,,,
31.75,0.00045,-36.39,,,,,,,
31.78,0.00043,-40.33,,,,,,,
31.8,0.0004,-44.82,,,,,,,
31.82,0.00038,-48.96,,,,,,,
31.84,0.00035,-53.53,,,,,,,
31.84,0.00034,-54.97,,,,,,,
31.85,0.00032,-57.03,,,,,,,
31.86,0.0003,-60.66,,,,,,,
31.88,0.00027,-64.22,,,,,,,
31.89,0.00025,-67.69,,,,,,,
31.91,0.00022,-71.18,,,,,,,
31.92,0.0002,-74.88,,,,,,,
31.94,0.00017,-78.41,,,,,,,
31.95,0.00015,-81.95,,,,,,,
31.97,0.00012,-85.66,,,,,,,
31.99,9e-05,-89.09,,,,,,,
32.01,7e-05,-92.67,,,,,,,
32.03,4e-05,-96.44,,,,,,,
32.04,2e-05,-99.8,,,,,,,
32.07,-1e-05,-103.59,,,,,,,
32.09,-3e-05,-107.17,,,,,,,
32.11,-6e-05,-110.62,,,,,,,
32.13,-8e-05,-113.99,,,,,,,
32.16,-0.00011,-117.38,,,,,,,
32.18,-0.00014,-120.69,,,,,,,
32.21,-0.00016,-124.05,,,,,,,
32.23,-0.00019,-127.57,,,,,,,
32.26,-0.00021,-130.85,,,,,,,
32.29,-0.00024,-134.06,,,,,,,
32.31,-0.00026,-137.33,,,,,,,
32.34,-0.00029,-140.34,,,,,,,
32.36,-0.00031,-142.74,,,,,,,
32.38,-0.00034,-144.53,,,,,,,
32.39,-0.00037,-145.85,,,,,,,
32.41,-0.00039,-147.1,,,,,,,
32.42,-0.00042,-148.39,,,,,,,
32.44,-0.00044,-149.55,,,,,,,
32.46,-0.00047,-150.56,,,,,,,
32.48,-0.00049,-151.58,,,,,,,
32.52,-0.00052,-152.53,,,,,,,
32.58,-0.00054,-154.18,,,,,,,
32.62,-0.00057,-156.98,,,,,,,
32.66,-0.0006,-159.86,,,,,,,
32.68,-0.00062,-161.05,,,,,,,
32.69,-0.00065,-158.78,,,,,,,
32.69,-0.00068,-159.06,,,,,,,
32.69,-0.00071,-159.34,,,,,,,
32.7,-0.00074,-159.57,,,,,,,
32.71,-0.00076,-160.85,,,,,,,
32.73,-0.00079,-161.57,,,,,,,
32.75,-0.00081,-161.58,,,,,,,
32.84,-0.00081,-158.78,,,,,,,
32.93,-0.00084,-162.59,,,,,,,
32.96,-0.00086,-166.37,,,,,,,
32.98,-0.00089,-169.02,,,,,,,
32.99,-0.00092,-167.88,,,,,,,
32.99,-0.00095,-168.38,,,,,,,
33.0,-0.00098,-168.9,,,,,,,
33.0,-0.00101,-169.68,,,,,,,
33.01,-0.00104,-170.99,,,,,,,
33.02,-0.00106,-171.22,,,,,,,
33.03,-0.00109,-171.36,,,,,,,
33.03,-0.00112,-171.43,,,,,,,
33.03,-0.00115,-171.5,,,,,,,
33.04,-0.00117,-171.61,,,,,,,
33.04,-0.0012,-171.72,,,,,,,
33.05,-0.00123,-171.69,,,,,,,
33.12,-0.0012,-163.8,,,,,,,
33.14,-0.00118,-159.89,,,,,,,
33.16,-0.00115,-156.51,,,,,,,
33.2,-0.00113,-153.59,,,,,,,
33.27,-0.00115,-157.71,,,,,,,
33.29,-0.00118,-161.65,,,,,,,
33.31,-0.0012,-165.21,,,,,,,
33.33,-0.00123,-168.91,,,,,,,
33.35,-0.00125,-172.62,,,,,,,
33.37,-0.00128,-176.14,,,,,,,
33.39,-0.00131,-179.31,,,,,,,
33.4,-0.00133,-173.32,,,,,,,
33.4,-0.00137,-173.98,,,,,,,
33.4,-0.0014,-174.44,,,,,,,
33.41,-0.00142,-175.09,,,,,,,
33.43,-0.00145,-178.13,,,,,,,
33.45,-0.00148,-179.51,,,,,,,
33.46,-0.00151,-179.99,,,,,,,
33.48,-0.00153,-180.3,,,,,,,
33.65,-0.00156,-181.29,,,,,,,
33.68,-0.00158,-184.84,,,,,,,
33.7,-0.00161,-179.09,,,,,,,
33.7,-0.00164,-179.18,,,,,,,
33.7,-0.00169,-179.61,,,,,,,
33.7,-0.00173,-179.74,,,,,,,
33.7,-0.00176,-179.83,,,,,,,
33.7,-0.0018,-179.98,,,,,,,
33.71,-0.00184,-180.06,,,,,,,
33.71,-0.00188,-180.19,,,,,,,
33.71,-0.00191,-180.35,,,,,,,
33.71,-0.00194,-180.48,,,,,,,
33.71,-0.00198,-180.83,,,,,,,
33.78,-0.00195,-174.22,,,,,,,
33.79,-0.00192,-169.79,,,,,,,
33.81,-0.0019,-165.65,,,,,,,
33.82,-0.00187,-161.67,,,,,,,
33.84,-0.00185,-157.62,,,,,,,
33.86,-0.00182,-154.36,,,,,,,
33.97,-0.00185,-158.76,,,,,,,
33.99,-0.00187,-162.07,,,,,,,
34.01,-0.0019,-165.2,,,,,,,
34.05,-0.00192,-167.41,,,,,,,
34.13,-0.0019,-161.1,,,,,,,
34.15,-0.00187,-156.63,,,,,,,
34.17,-0.00185,-152.34,,,,,,,
34.19,-0.00182,-148.12,,,,,,,
34.21,-0.00179,-143.92,,,,,,,
34.23,-0.00177,-139.95,,,,,,,
34.25,-0.00174,-136.13,,,,,,,
34.27,-0.00172,-132.19,,,,,,,
34.29,-0.00169,-128.33,,,,,,,
34.32,-0.00167,-124.27,,,,,,,
34.34,-0.00164,-119.98,,,,,,,
34.37,-0.00161,-115.95,,,,,,,
34.4,-0.00159,-111.67,,,,,,,
34.43,-0.00156,-107.3,,,,,,,
34.46,-0.00154,-102.92,,,,,,,
34.49,-0.00151,-98.9,,,,,,,
34.52,-0.00149,-94.93,,,,,,,
34.55,-0.00146,-90.94,,,,,,,
34.58,-0.00144,-86.42,,,,,,,
34.61,-0.00141,-81.62,,,,,,,
34.64,-0.00139,-77.64,,,,,,,
34.66,-0.00136,-73.67,,,,,,,
34.69,-0.00133,-69.47,,,,,,,
34.71,-0.00131,-65.42,,,,,,,
34.74,-0.00128,-61.55,,,,,,,
34.76,-0.00126,-57.63,,,,,,,
34.79,-0.00123,-53.54,,,,,,,
34.82,-0.00121,-49.69,,,,,,,
34.84,-0.00118,-46.24,,,,,,,
34.84,-0.00118,-45.96,,,,,,,
34.87,-0.00116,-42.23,,,,,,,
34.9,-0.00113,-38.29,,,,,,,
34.92,-0.00111,-34.6,,,,,,,
34.95,-0.00108,-30.62,,,,,,,
34.98,-0.00105,-26.86,,,,,,,
35.01,-0.00103,-23.21,,,,,,,
35.03,-0.001,-19.42,,,,,,,
35.06,-0.00098,-15.38,,,,,,,
35.09,-0.00095,-11.38,,,,,,,
35.12,-0.00093,-7.48,,,,,,,
35.15,-0.0009,-3.55,,,,,,,
35.17,-0.00088,0.29,,,,,,,
35.2,-0.00085,3.72,,,,,,,
35.22,-0.00083,7.3,,,,,,,
35.25,-0.0008,11.16,,,,,,,
35.28,-0.00078,14.9,,,,,,,
35.3,-0.00075,18.5,,,,,,,
35.33,-0.00072,22.0,,,,,,,
35.36,-0.0007,25.53,,,,,,,
35.39,-0.00067,28.6,,,,,,,
35.45,-0.00065,31.98,,,,,,,
35.49,-0.00062,35.48,,,,,,,
35.51,-0.0006,39.22,,,,,,,
35.54,-0.00057,42.86,,,,,,,
35.56,-0.00055,46.71,,,,,,,
35.57,-0.00052,49.88,,,,,,,
35.59,-0.0005,53.06,,,,,,,
35.62,-0.00047,56.26,,,,,,,
35.64,-0.00044,59.23,,,,,,,
35.67,-0.00042,62.37,,,,,,,
35.7,-0.00039,65.54,,,,,,,
35.74,-0.00037,68.49,,,,,,,
35.77,-0.00034,71.28,,,,,,,
35.81,-0.00032,74.37,,,,,,,
35.84,-0.00029,77.7,,,,,,,
35.84,-0.00029,77.97,,,,,,,
35.87,-0.00027,80.74,,,,,,,
35.9,-0.00024,84.0,,,,,,,
35.93,-0.00022,87.12,,,,,,,
68.0,-0.0002,88.91,,,,,,,
68.02,-0.00017,92.38,,,,,,,
68.05,-0.00015,95.87,,,,,,,
68.08,-0.00012,99.05,,,,,,,
68.1,-0.0001,102.4,,,,,,,
68.13,-7e-05,106.27,,,,,,,
68.15,-4e-05,110.13,,,,,,,
68.17,-2e-05,113.66,,,,,,,
68.18,1e-05,117.26,,,,,,,
68.2,3e-05,120.69,,,,,,,
68.22,6e-05,124.19,,,,,,,
68.23,8e-05,127.52,,,,,,,
68.25,0.00011,130.76,,,,,,,
68.26,0.00014,134.11,,,,,,,
68.28,0.00016,137.37,,,,,,,
68.3,0.00019,140.51,,,,,,,
68.32,0.00021,143.51,,,,,,,
68.34,0.00024,146.36,,,,,,,
68.36,0.00026,148.96,,,,,,,
68.38,0.00029,151.34,,,,,,,
68.4,0.00031,153.31,,,,,,,
68.41,0.00034,155.14,,,,,,,
68.43,0.00037,156.28,,,,,,,
68.44,0.00039,157.23,,,,,,,
68.46,0.00042,158.03,,,,,,,
68.48,0.00044,158.82,,,,,,,
68.51,0.00047,159.73,,,,,,,
68.55,0.00049,160.64,,,,,,,
68.6,0.00052,162.45,,,,,,,
68.64,0.00054,165.27,,,,,,,
68.67,0.00057,167.93,,,,,,,
68.69,0.0006,168.53,,,,,,,
68.7,0.00063,168.18,,,,,,,
68.7,0.00066,168.34,,,,,,,
68.7,0.00069,168.51,,,,,,,
68.71,0.00071,168.79,,,,,,,
68.71,0.00074,169.34,,,,,,,
68.73,0.00077,169.8,,,,,,,
68.84,0.00078,164.91,,,,,,,
68.9,0.00079,165.75,,,,,,,
68.94,0.00082,169.15,,,,,,,
68.97,0.00084,172.53,,,,,,,
68.99,0.00087,175.76,,,,,,,
69.01,0.0009,177.21,,,,,,,
69.02,0.00093,176.39,,,,,,,
69.02,0.00096,176.55,,,,,,,
69.02,0.001,176.8,,,,,,,
69.02,0.00105,176.97,,,,,,,
69.02,0.00109,177.24,,,,,,,
69.03,0.00112,177.44,,,,,,,
69.03,0.00115,177.78,,,,,,,
69.13,0.00113,169.54,,,,,,,
69.17,0.0011,165.58,,,,,,,
69.27,0.00113,169.46,,,,,,,
69.29,0.00115,172.81,,,,,,,
69.31,0.00118,176.27,,,,,,,
69.33,0.0012,179.7,,,,,,,
69.35,0.00123,182.91,,,,,,,
69.37,0.00126,185.94,,,,,,,
69.39,0.00128,183.66,,,,,,,
69.4,0.00131,184.86,,,,,,,
69.41,0.00134,185.8,,,,,,,
69.41,0.00136,183.41,,,,,,,
69.42,0.0014,183.71,,,,,,,
69.42,0.00144,183.96,,,,,,,
69.42,0.00149,184.18,,,,,,,
69.42,0.00152,184.32,,,,,,,
69.42,0.00155,184.45,,,,,,,
69.42,0.00158,184.53,,,,,,,
69.42,0.0016,184.63,,,,,,,
69.42,0.00164,184.86,,,,,,,
69.43,0.00167,185.1,,,,,,,
69.49,0.00164,176.69,,,,,,,
69.5,0.00162,172.32,,,,,,,
69.52,0.00159,167.93,,,,,,,
69.53,0.00157,163.96,,,,,,,
69.54,0.00154,160.22,,,,,,,
69.56,0.00151,156.62,,,,,,,
69.58,0.00149,153.35,,,,,,,
69.68,0.00152,159.33,,,,,,,
69.7,0.00154,162.77,,,,,,,
69.71,0.00157,166.26,,,,,,,
69.73,0.00159,169.73,,,,,,,
69.75,0.00162,173.13,,,,,,,
69.76,0.00164,176.73,,,,,,,
69.78,0.00167,180.2,,,,,,,
69.8,0.0017,183.42,,,,,,,
69.82,0.00172,186.69,,,,,,,
69.84,0.00175,189.78,,,,,,,
69.84,0.00175,190.04,,,,,,,
69.87,0.00177,192.86,,,,,,,
69.89,0.00181,188.98,,,,,,,
69.89,0.00183,189.14,,,,,,,
69.89,0.00187,189.35,,,,,,,
69.89,0.0019,189.57,,,,,,,
69.9,0.00193,189.83,,,,,,,
69.9,0.00195,190.15,,,,,,,
70.09,0.00193,180.63,,,,,,,
70.13,0.0019,175.93,,,,,,,
70.16,0.00188,171.41,,,,,,,
70.18,0.00185,167.25,,,,,,,
70.21,0.00183,163.03,,,,,,,
70.23,0.0018,159.06,,,,,,,
70.25,0.00178,155.26,,,,,,,
70.28,0.00175,151.21,,,,,,,
70.3,0.00173,147.27,,,,,,,
70.33,0.0017,143.62,,,,,,,
70.35,0.00167,139.63,,,,,,,
70.38,0.00165,135.62,,,,,,,
70.41,0.00162,131.12,,,,,,,
70.44,0.0016,127.24,,,,,,,
70.47,0.00157,123.35,,,,,,,
70.5,0.00155,119.31,,,,,,,
70.52,0.00152,115.55,,,,,,,
70.55,0.0015,111.9,,,,,,,
70.57,0.00147,108.25,,,,,,,
70.6,0.00145,104.5,,,,,,,
70.63,0.00142,100.73,,,,,,,
70.65,0.00139,97.19,,,,,,,
70.68,0.00137,93.39,,,,,,,
70.71,0.00134,89.39,,,,,,,
70.74,0.00132,85.21,,,,,,,
70.77,0.00129,81.27,,,,,,,
70.8,0.00127,77.5,,,,,,,
70.82,0.00124,73.57,,,,,,,
70.84,0.00122,70.9,,,,,,,
70.85,0.00122,69.52,,,,,,,
70.88,0.00119,65.66,,,,,,,
70.91,0.00116,61.88,,,,,,,
70.93,0.00114,58.04,,,,,,,
70.96,0.00111,54.52,,,,,,,
70.98,0.00109,50.65,,,,,,,
71.01,0.00106,47.0,,,,,,,
71.04,0.00104,43.43,,,,,,,
71.07,0.00101,39.53,,,,,,,
71.09,0.00099,35.98,,,,,,,
71.12,0.00096,32.27,,,,,,,
71.15,0.00094,28.61,,,,,,,
71.17,0.00091,25.25,,,,,,,
71.2,0.00088,21.65,,,,,,,
71.23,0.00086,17.91,,,,,,,
71.25,0.00083,14.33,,,,,,,
71.28,0.00081,10.64,,,,,,,
71.31,0.00078,6.82,,,,,,,
71.34,0.00076,3.04,,,,,,,
71.37,0.00073,-0.46,,,,,,,
71.39,0.00071,-4.32,,,,,,,
71.42,0.00068,-8.1,,,,,,,
71.45,0.00065,-11.78,,,,,,,
71.48,0.00063,-15.6,,,,,,,
71.52,0.0006,-19.28,,,,,,,
71.61,0.00058,-22.34,,,,,,,
71.67,0.00055,-26.53,,,,,,,
71.71,0.00053,-30.46,,,,,,,
71.75,0.0005,-34.36,,,,,,,
71.78,0.00048,-38.39,,,,,,,
71.8,0.00045,-42.07,,,,,,,
71.83,0.00043,-46.32,,,,,,,
71.84,0.0004,-50.29,,,,,,,
71.86,0.00037,-54.82,,,,,,,
71.87,0.00035,-58.44,,,,,,,
71.88,0.00032,-61.93,,,,,,,
71.89,0.0003,-65.33,,,,,,,
71.91,0.00027,-68.95,,,,,,,
71.92,0.00025,-72.46,,,,,,,
71.94,0.00022,-76.19,,,,,,,
71.96,0.00019,-79.64,,,,,,,
71.97,0.00017,-83.15,,,,,,,
71.99,0.00014,-86.47,,,,,,,
72.01,0.00012,-90.23,,,,,,,
72.02,9e-05,-93.84,,,,,,,
72.04,7e-05,-97.51,,,,,,,
72.06,4e-05,-100.89,,,,,,,
72.08,1e-05,-104.15,,,,,,,
72.1,-1e-05,-107.41,,,,,,,
72.12,-4e-05,-110.46,,,,,,,
72.14,-6e-05,-113.44,,,,,,,
72.16,-9e-05,-116.66,,,,,,,
72.19,-0.00011,-119.54,,,,,,,
72.21,-0.00014,-122.41,,,,,,,
72.24,-0.00016,-125.41,,,,,,,
72.27,-0.00019,-128.53,,,,,,,
72.3,-0.00021,-131.61,,,,,,,
72.32,-0.00024,-134.73,,,,,,,
72.35,-0.00026,-137.85,,,,,,,
72.38,-0.00029,-141.03,,,,,,,
72.4,-0.00031,-144.06,,,,,,,
72.43,-0.00034,-147.0,,,,,,,
72.45,-0.00037,-149.84,,,,,,,
72.48,-0.00039,-152.53,,,,,,,
72.5,-0.00042,-155.2,,,,,,,
72.52,-0.00044,-157.34,,,,,,,
72.54,-0.00047,-158.21,,,,,,,
72.55,-0.0005,-158.87,,,,,,,
72.56,-0.00052,-159.57,,,,,,,
72.58,-0.00055,-161.04,,,,,,,
72.6,-0.00057,-162.18,,,,,,,
72.63,-0.0006,-162.95,,,,,,,
72.69,-0.00062,-164.02,,,,,,,
72.73,-0.00065,-165.8,,,,,,,
72.77,-0.00067,-168.17,,,,,,,
72.79,-0.0007,-169.76,,,,,,,
72.81,-0.00073,-169.99,,,,,,,
72.81,-0.00076,-169.76,,,,,,,
72.82,-0.00078,-169.87,,,,,,,
72.82,-0.00082,-170.01,,,,,,,
72.82,-0.00085,-170.11,,,,,,,
72.83,-0.00088,-170.28,,,,,,,
72.84,-0.0009,-170.78,,,,,,,
72.84,-0.00091,-170.86,,,,,,,
73.07,-0.00093,-168.93,,,,,,,
73.09,-0.00095,-172.3,,,,,,,
73.11,-0.00098,-175.5,,,,,,,
73.13,-0.00101,-178.88,,,,,,,
73.15,-0.00103,-176.89,,,,,,,
73.15,-0.00106,-175.75,,,,,,,
73.16,-0.00109,-176.05,,,,,,,
73.16,-0.00112,-176.37,,,,,,,
73.16,-0.00117,-176.63,,,,,,,
73.16,-0.00121,-176.91,,,,,,,
73.16,-0.00125,-177.18,,,,,,,
73.17,-0.00128,-177.63,,,,,,,
73.29,-0.00125,-171.39,,,,,,,
73.42,-0.00128,-174.48,,,,,,,
73.44,-0.0013,-177.77,,,,,,,
73.47,-0.00133,-181.23,,,,,,,
73.49,-0.00135,-184.52,,,,,,,
73.5,-0.00138,-187.35,,,,,,,
73.52,-0.00141,-185.32,,,,,,,
73.53,-0.00143,-186.65,,,,,,,
73.54,-0.00146,-187.67,,,,,,,
73.54,-0.00148,-185.28,,,,,,,
73.54,-0.00152,-185.61,,,,,,,
73.55,-0.00156,-185.87,,,,,,,
73.55,-0.00158,-185.98,,,,,,,
73.55,-0.00161,-186.11,,,,,,,
73.55,-0.00164,-186.25,,,,,,,
73.55,-0.00167,-186.36,,,,,,,
73.55,-0.0017,-186.47,,,,,,,
73.55,-0.00172,-186.58,,,,,,,
73.55,-0.00177,-186.81,,,,,,,
73.56,-0.00179,-187.05,,,,,,,
73.62,-0.00177,-179.56,,,,,,,
73.63,-0.00174,-175.43,,,,,,,
73.64,-0.00172,-171.71,,,,,,,
73.66,-0.00169,-167.88,,,,,,,
73.67,-0.00166,-163.9,,,,,,,
73.69,-0.00164,-160.03,,,,,,,
73.71,-0.00161,-156.72,,,,,,,
73.81,-0.00164,-161.47,,,,,,,
73.83,-0.00166,-165.35,,,,,,,
73.84,-0.00168,-167.98,,,,,,,
73.85,-0.00169,-169.04,,,,,,,
73.87,-0.00172,-172.86,,,,,,,
73.88,-0.00174,-176.65,,,,,,,
73.9,-0.00177,-180.32,,,,,,,
73.92,-0.00179,-184.39,,,,,,,
73.94,-0.00182,-188.36,,,,,,,
73.96,-0.00184,-191.58,,,,,,,
73.98,-0.00187,-194.33,,,,,,,
74.0,-0.0019,-191.5,,,,,,,
74.0,-0.00194,-191.76,,,,,,,
74.0,-0.00198,-191.97,,,,,,,
74.0,-0.00201,-192.1,,,,,,,
74.0,-0.00204,-192.18,,,,,,,
74.01,-0.00207,-192.27,,,,,,,
74.01,-0.00209,-192.4,,,,,,,
74.01,-0.00212,-192.53,,,,,,,
74.01,-0.00216,-192.75,,,,,,,
74.01,-0.00219,-193.07,,,,,,,
74.08,-0.00216,-181.38,,,,,,,
74.09,-0.00214,-177.0,,,,,,,
74.1,-0.00211,-172.31,,,,,,,
74.11,-0.00208,-167.9,,,,,,,
74.12,-0.00205,-163.46,,,,,,,
74.12,-0.00203,-159.44,,,,,,,
74.13,-0.002,-155.47,,,,,,,
74.14,-0.00198,-151.68,,,,,,,
74.15,-0.00195,-147.48,,,,,,,
74.16,-0.00193,-143.61,,,,,,,
74.17,-0.0019,-139.85,,,,,,,
74.17,-0.00188,-135.95,,,,,,,
74.18,-0.00185,-132.38,,,,,,,
74.2,-0.00182,-128.52,,,,,,,
74.21,-0.0018,-124.71,,,,,,,
74.22,-0.00177,-121.0,,,,,,,
74.24,-0.00175,-117.64,,,,,,,
74.26,-0.00172,-113.87,,,,,,,
74.29,-0.0017,-110.08,,,,,,,
74.33,-0.00167,-106.01,,,,,,,
74.37,-0.00165,-101.66,,,,,,,
74.41,-0.00162,-97.89,,,,,,,
74.44,-0.0016,-93.91,,,,,,,
74.47,-0.00157,-89.89,,,,,,,
74.49,-0.00154,-86.2,,,,,,,
74.52,-0.00152,-82.35,,,,,,,
74.54,-0.00149,-78.81,,,,,,,
74.57,-0.00147,-74.82,,,,,,,
74.6,-0.00144,-70.73,,,,,,,
74.63,-0.00142,-66.59,,,,,,,
74.66,-0.00139,-62.44,,,,,,,
74.69,-0.00137,-58.61,,,,,,,
74.71,-0.00134,-55.19,,,,,,,
74.74,-0.00132,-51.48,,,,,,,
74.76,-0.00129,-47.85,,,,,,,
74.79,-0.00126,-44.58,,,,,,,
74.81,-0.00124,-40.89,,,,,,,
74.84,-0.00121,-37.28,,,,,,,
74.84,-0.00121,-36.69,,,,,,,
74.87,-0.00119,-33.74,,,,,,,
74.89,-0.00116,-30.18,,,,,,,
74.92,-0.00114,-26.86,,,,,,,
74.94,-0.00111,-23.5,,,,,,,
74.97,-0.00108,-20.03,,,,,,,
75.0,-0.00106,-16.82,,,,,,,
75.03,-0.00103,-13.18,,,,,,,
75.06,-0.00101,-9.4,,,,,,,
75.09,-0.00098,-5.73,,,,,,,
75.12,-0.00096,-2.17,,,,,,,
75.14,-0.00093,1.15,,,,,,,
75.16,-0.00091,4.18,,,,,,,
75.19,-0.00088,7.47,,,,,,,
75.22,-0.00085,11.07,,,,,,,
75.25,-0.00083,14.82,,,,,,,
75.28,-0.0008,18.35,,,,,,,
75.31,-0.00078,21.91,,,,,,,
75.34,-0.00075,25.56,,,,,,,
75.38,-0.00073,28.72,,,,,,,
75.43,-0.0007,32.22,,,,,,,
75.46,-0.00068,35.44,,,,,,,
75.49,-0.00065,39.41,,,,,,,
75.51,-0.00063,42.69,,,,,,,
75.53,-0.0006,46.39,,,,,,,
75.55,-0.00058,49.91,,,,,,,
75.58,-0.00055,53.5,,,,,,,
75.61,-0.00052,57.04,,,,,,,
75.64,-0.0005,60.62,,,,,,,
75.68,-0.00047,64.43,,,,,,,
75.71,-0.00045,67.99,,,,,,,
75.75,-0.00042,72.0,,,,,,,
75.78,-0.0004,75.91,,,,,,,
75.81,-0.00037,79.76,,,,,,,
75.84,-0.00035,83.11,,,,,,,
75.85,-0.00035,83.58,,,,,,,
75.88,-0.00032,87.31,,,,,,,
75.9,-0.0003,90.77,,,,,,,
75.93,-0.00027,94.28,,,,,,,
75.96,-0.00025,97.83,,,,,,,
148.07,-0.00017,66.83,,,,,,,
148.11,-0.00014,70.73,,,,,,,
148.14,-0.00012,74.33,,,,,,,
148.17,-9e-05,78.09,,,,,,,
148.2,-7e-05,81.18,,,,,,,
148.23,-4e-05,84.03,,,,,,,
148.25,-2e-05,87.35,,,,,,,
148.29,1e-05,90.81,,,,,,,
148.32,3e-05,94.11,,,,,,,
148.34,6e-05,97.48,,,,,,,
148.37,8e-05,100.62,,,,,,,
148.4,0.00011,104.02,,,,,,,
148.42,0.00014,107.59,,,,,,,
148.44,0.00016,111.38,,,,,,,
148.46,0.00019,114.95,,,,,,,
148.47,0.00021,118.41,,,,,,,
148.49,0.00024,121.87,,,,,,,
148.5,0.00026,125.21,,,,,,,
148.52,0.00029,128.54,,,,,,,
148.54,0.00032,132.05,,,,,,,
148.56,0.00034,135.57,,,,,,,
148.57,0.00037,138.65,,,,,,,
148.59,0.00039,141.76,,,,,,,
148.61,0.00042,145.0,,,,,,,
148.63,0.00045,147.95,,,,,,,
148.66,0.00047,151.07,,,,,,,
148.68,0.0005,153.86,,,,,,,
148.7,0.00052,156.62,,,,,,,
148.73,0.00055,159.38,,,,,,,
148.76,0.00057,162.19,,,,,,,
148.78,0.0006,164.76,,,,,,,
148.8,0.00063,166.99,,,,,,,
148.83,0.00065,169.2,,,,,,,
148.84,0.00067,170.44,,,,,,,
148.84,0.00068,170.58,,,,,,,
148.86,0.0007,171.78,,,,,,,
148.87,0.00073,172.01,,,,,,,
148.88,0.00076,172.12,,,,,,,
148.89,0.00079,172.37,,,,,,,
148.89,0.00081,172.62,,,,,,,
148.9,0.00084,172.98,,,,,,,
148.92,0.00086,173.14,,,,,,,
149.08,0.00089,168.2,,,,,,,
149.12,0.00092,170.76,,,,,,,
149.14,0.00094,173.45,,,,,,,
149.17,0.00097,176.27,,,,,,,
149.19,0.00099,178.94,,,,,,,
149.21,0.00102,181.71,,,,,,,
149.23,0.00104,181.26,,,,,,,
149.24,0.00107,181.79,,,,,,,
149.24,0.0011,182.19,,,,,,,
149.25,0.00112,182.71,,,,,,,
149.27,0.00115,184.63,,,,,,,
149.28,0.00118,185.21,,,,,,,
149.3,0.0012,185.35,,,,,,,
149.32,0.00123,185.41,,,,,,,
149.41,0.00125,183.96,,,,,,,
149.47,0.00128,186.09,,,,,,,
149.51,0.0013,188.97,,,,,,,
149.53,0.00133,191.84,,,,,,,
149.55,0.00136,190.21,,,,,,,
149.55,0.00139,190.52,,,,,,,
149.55,0.00142,190.74,,,,,,,
149.55,0.00146,190.97,,,,,,,
149.56,0.00149,191.2,,,,,,,
149.56,0.00152,191.53,,,,,,,
149.58,0.00155,192.95,,,,,,,
149.59,0.00157,190.04,,,,,,,
149.6,0.0016,189.97,,,,,,,
149.6,0.00163,189.91,,,,,,,
149.6,0.00167,189.85,,,,,,,
149.6,0.00171,189.79,,,,,,,
149.6,0.00174,189.71,,,,,,,
149.61,0.00177,189.64,,,,,,,
149.64,0.00174,183.28,,,,,,,
149.66,0.00172,178.29,,,,,,,
149.67,0.00169,173.96,,,,,,,
149.68,0.00167,169.82,,,,,,,
149.7,0.00164,165.87,,,,,,,
149.71,0.00161,162.09,,,,,,,
149.73,0.00159,158.34,,,,,,,
149.75,0.00156,155.17,,,,,,,
149.84,0.00159,160.57,,,,,,,
149.84,0.00159,160.77,,,,,,,
149.86,0.00161,164.57,,,,,,,
149.88,0.00164,168.29,,,,,,,
149.89,0.00166,171.86,,,,,,,
149.91,0.00169,175.25,,,,,,,
149.93,0.00172,178.82,,,,,,,
149.94,0.00174,182.29,,,,,,,
149.96,0.00177,185.48,,,,,,,
149.98,0.00179,188.93,,,,,,,
150.0,0.00182,192.27,,,,,,,
150.03,0.00184,195.29,,,,,,,
150.05,0.00187,198.03,,,,,,,
150.08,0.00189,197.06,,,,,,,
150.09,0.00193,197.25,,,,,,,
150.09,0.00195,197.41,,,,,,,
150.09,0.00199,197.52,,,,,,,
150.09,0.00202,197.71,,,,,,,
150.1,0.00205,197.96,,,,,,,
150.18,0.00202,190.37,,,,,,,
150.19,0.002,185.55,,,,,,,
150.21,0.00197,181.32,,,,,,,
150.22,0.00195,176.87,,,,,,,
150.24,0.00192,173.07,,,,,,,
150.25,0.0019,169.06,,,,,,,
150.26,0.00187,164.91,,,,,,,
150.28,0.00184,161.03,,,,,,,
150.29,0.00182,157.29,,,,,,,
150.31,0.00179,153.45,,,,,,,
150.33,0.00177,149.45,,,,,,,
150.35,0.00174,145.8,,,,,,,
150.37,0.00172,142.01,,,,,,,
150.4,0.00169,138.42,,,,,,,
150.43,0.00167,134.74,,,,,,,
150.46,0.00164,131.38,,,,,,,
150.49,0.00162,127.63,,,,,,,
150.52,0.00159,123.73,,,,,,,
150.55,0.00156,120.2,,,,,,,
150.58,0.00154,116.49,,,,,,,
150.61,0.00151,112.96,,,,,,,
150.64,0.00149,109.04,,,,,,,
150.67,0.00146,105.39,,,,,,,
150.69,0.00144,101.78,,,,,,,
150.72,0.00141,98.07,,,,,,,
150.74,0.00139,94.67,,,,,,,
150.77,0.00136,91.41,,,,,,,
150.79,0.00134,88.14,,,,,,,
150.82,0.00131,84.62,,,,,,,
150.84,0.00129,81.77,,,,,,,
150.85,0.00128,81.02,,,,,,,
150.88,0.00126,77.48,,,,,,,
150.91,0.00123,73.92,,,,,,,
150.94,0.00121,70.19,,,,,,,
150.97,0.00118,66.19,,,,,,,
151.0,0.00116,61.95,,,,,,,
151.02,0.00113,58.16,,,,,,,
151.05,0.00111,54.79,,,,,,,
151.07,0.00108,51.22,,,,,,,
151.1,0.00106,47.82,,,,,,,
151.12,0.00103,44.45,,,,,,,
151.15,0.00101,41.15,,,,,,,
151.17,0.00098,37.89,,,,,,,
151.2,0.00096,34.54,,,,,,,
151.22,0.00093,31.27,,,,,,,
151.25,0.0009,28.06,,,,,,,
151.28,0.00088,24.7,,,,,,,
151.31,0.00085,21.23,,,,,,,
151.33,0.00083,18.05,,,,,,,
151.36,0.0008,14.66,,,,,,,
151.39,0.00078,10.73,,,,,,,
151.42,0.00075,6.98,,,,,,,
151.45,0.00073,3.07,,,,,,,
151.48,0.0007,-0.47,,,,,,,
151.51,0.00068,-4.1,,,,,,,
151.54,0.00065,-7.67,,,,,,,
151.56,0.00063,-11.29,,,,,,,
151.59,0.0006,-14.85,,,,,,,
151.62,0.00058,-17.89,,,,,,,
151.68,0.00055,-20.52,,,,,,,
151.78,0.00052,-23.81,,,,,,,
151.82,0.0005,-28.02,,,,,,,
151.84,0.00049,-30.18,,,,,,,
151.86,0.00047,-32.31,,,,,,,
151.89,0.00045,-35.96,,,,,,,
151.91,0.00042,-39.62,,,,,,,
151.94,0.0004,-44.17,,,,,,,
151.96,0.00037,-48.34,,,,,,,
151.97,0.00035,-52.86,,,,,,,
151.99,0.00032,-56.34,,,,,,,
152.0,0.0003,-60.21,,,,,,,
152.01,0.00027,-63.54,,,,,,,
152.03,0.00025,-66.82,,,,,,,
152.04,0.00022,-69.98,,,,,,,
152.06,0.00019,-73.47,,,,,,,
152.07,0.00017,-76.94,,,,,,,
152.09,0.00014,-80.2,,,,,,,
152.11,0.00012,-83.71,,,,,,,
152.12,9e-05,-86.94,,,,,,,
152.14,7e-05,-90.11,,,,,,,
152.16,4e-05,-93.41,,,,,,,
152.17,2e-05,-96.56,,,,,,,
152.19,-1e-05,-99.66,,,,,,,
152.21,-4e-05,-102.69,,,,,,,
152.23,-6e-05,-105.95,,,,,,,
152.26,-9e-05,-109.03,,,,,,,
152.28,-0.00011,-111.95,,,,,,,
152.3,-0.00014,-114.6,,,,,,,
152.33,-0.00016,-117.38,,,,,,,
152.35,-0.00019,-120.22,,,,,,,
152.38,-0.00022,-122.92,,,,,,,
152.41,-0.00024,-125.71,,,,,,,
152.44,-0.00027,-128.99,,,,,,,
152.47,-0.00029,-131.99,,,,,,,
152.49,-0.00032,-134.84,,,,,,,
152.52,-0.00034,-137.65,,,,,,,
152.54,-0.00037,-140.37,,,,,,,
152.56,-0.00039,-142.9,,,,,,,
152.59,-0.00042,-145.42,,,,,,,
152.61,-0.00044,-148.14,,,,,,,
152.64,-0.00047,-150.79,,,,,,,
152.67,-0.00049,-153.49,,,,,,,
152.69,-0.00052,-156.25,,,,,,,
152.72,-0.00055,-158.73,,,,,,,
152.74,-0.00057,-161.22,,,,,,,
152.77,-0.0006,-163.72,,,,,,,
152.79,-0.00062,-166.18,,,,,,,
152.82,-0.00065,-168.28,,,,,,,
152.84,-0.00067,-169.96,,,,,,,
152.84,-0.00068,-170.3,,,,,,,
152.85,-0.0007,-169.91,,,,,,,
152.86,-0.00073,-170.03,,,,,,,
152.86,-0.00076,-170.27,,,,,,,
152.87,-0.00078,-170.73,,,,,,,
152.9,-0.00081,-172.08,,,,,,,
153.0,-0.00083,-172.35,,,,,,,
153.05,-0.00086,-174.52,,,,,,,
153.08,-0.00088,-177.01,,,,,,,
153.1,-0.00091,-179.43,,,,,,,
153.13,-0.00093,-181.09,,,,,,,
153.13,-0.00096,-180.2,,,,,,,
153.14,-0.001,-180.51,,,,,,,
153.14,-0.00103,-180.86,,,,,,,
153.14,-0.00106,-181.2,,,,,,,
153.16,-0.00109,-181.35,,,,,,,
153.17,-0.00112,-181.55,,,,,,,
153.17,-0.00116,-181.69,,,,,,,
153.17,-0.00119,-181.81,,,,,,,
153.2,-0.00121,-181.58,,,,,,,
153.24,-0.00119,-176.2,,,,,,,
153.27,-0.00116,-171.43,,,,,,,
153.31,-0.00114,-167.52,,,,,,,
153.39,-0.00116,-170.21,,,,,,,
153.42,-0.00119,-173.6,,,,,,,
153.44,-0.00121,-176.68,,,,,,,
153.46,-0.00124,-179.87,,,,,,,
153.48,-0.00127,-183.22,,,,,,,
153.5,-0.00129,-186.03,,,,,,,
153.52,-0.00132,-188.92,,,,,,,
153.54,-0.00134,-187.94,,,,,,,
153.55,-0.00137,-188.15,,,,,,,
153.55,-0.0014,-188.55,,,,,,,
153.56,-0.00143,-189.06,,,,,,,
153.56,-0.00145,-189.64,,,,,,,
153.57,-0.00148,-190.79,,,,,,,
153.6,-0.00151,-192.04,,,,,,,
153.71,-0.00153,-191.06,,,,,,,
153.78,-0.00156,-195.23,,,,,,,
153.81,-0.00158,-198.75,,,,,,,
153.83,-0.00161,-195.68,,,,,,,
153.83,-0.00165,-196.0,,,,,,,
153.83,-0.00168,-196.12,,,,,,,
153.83,-0.00171,-196.23,,,,,,,
153.83,-0.00175,-196.39,,,,,,,
153.83,-0.00178,-196.52,,,,,,,
153.83,-0.00182,-196.62,,,,,,,
153.83,-0.00186,-196.75,,,,,,,
153.84,-0.00189,-196.88,,,,,,,
153.84,-0.00192,-197.02,,,,,,,
153.84,-0.00196,-197.28,,,,,,,
153.84,-0.00197,-197.84,,,,,,,
153.91,-0.00193,-189.34,,,,,,,
153.93,-0.0019,-184.85,,,,,,,
153.95,-0.00188,-180.66,,,,,,,
153.96,-0.00185,-176.95,,,,,,,
153.98,-0.00183,-173.08,,,,,,,
154.01,-0.0018,-169.9,,,,,,,
154.09,-0.00183,-174.8,,,,,,,
154.11,-0.00185,-178.24,,,,,,,
154.13,-0.00188,-181.08,,,,,,,
154.16,-0.00191,-183.93,,,,,,,
154.27,-0.00188,-176.68,,,,,,,
154.29,-0.00185,-172.32,,,,,,,
154.31,-0.00183,-168.26,,,,,,,
154.33,-0.0018,-164.15,,,,,,,
154.35,-0.00178,-159.97,,,,,,,
154.37,-0.00175,-156.03,,,,,,,
154.39,-0.00173,-152.01,,,,,,,
154.41,-0.0017,-147.66,,,,,,,
154.44,-0.00168,-143.69,,,,,,,
154.46,-0.00165,-139.46,,,,,,,
154.49,-0.00162,-135.61,,,,,,,
154.51,-0.0016,-131.67,,,,,,,
154.54,-0.00157,-127.7,,,,,,,
154.57,-0.00155,-123.6,,,,,,,
154.6,-0.00152,-119.76,,,,,,,
154.62,-0.0015,-116.02,,,,,,,
154.66,-0.00147,-111.78,,,,,,,
154.69,-0.00145,-107.41,,,,,,,
154.72,-0.00142,-103.06,,,,,,,
154.74,-0.0014,-98.98,,,,,,,
154.77,-0.00137,-95.09,,,,,,,
154.8,-0.00134,-90.92,,,,,,,
154.82,-0.00132,-87.11,,,,,,,
154.84,-0.0013,-84.24,,,,,,,
154.85,-0.00129,-83.01,,,,,,,
154.88,-0.00127,-79.13,,,,,,,
154.9,-0.00124,-75.54,,,,,,,
154.93,-0.00122,-71.94,,,,,,,
154.95,-0.00119,-68.04,,,,,,,
154.98,-0.00117,-64.14,,,,,,,
155.01,-0.00114,-60.16,,,,,,,
155.04,-0.00112,-56.71,,,,,,,
155.06,-0.00109,-53.14,,,,,,,
155.09,-0.00107,-49.03,,,,,,,
155.12,-0.00104,-45.12,,,,,,,
155.14,-0.00101,-41.67,,,,,,,
155.17,-0.00099,-37.93,,,,,,,
155.2,-0.00096,-34.31,,,,,,,
155.22,-0.00094,-30.96,,,,,,,
155.25,-0.00091,-27.57,,,,,,,
155.28,-0.00089,-24.07,,,,,,,
155.3,-0.00086,-20.34,,,,,,,
155.33,-0.00084,-16.83,,,,,,,
155.36,-0.00081,-12.9,,,,,,,
155.39,-0.00078,-9.18,,,,,,,
155.42,-0.00076,-5.4,,,,,,,
155.45,-0.00073,-1.75,,,,,,,
155.47,-0.00071,1.79,,,,,,,
155.5,-0.00068,5.23,,,,,,,
155.52,-0.00066,8.37,,,,,,,
155.54,-0.00063,11.26,,,,,,,
155.57,-0.00061,14.72,,,,,,,
155.6,-0.00058,18.56,,,,,,,
155.63,-0.00055,22.16,,,,,,,
155.66,-0.00053,25.64,,,,,,,
155.7,-0.0005,28.33,,,,,,,
155.75,-0.00048,31.4,,,,,,,
155.78,-0.00045,34.67,,,,,,,
155.81,-0.00043,38.05,,,,,,,
155.83,-0.0004,41.64,,,,,,,
155.84,-0.00039,43.2,,,,,,,
155.85,-0.00038,45.53,,,,,,,
155.87,-0.00035,48.63,,,,,,,
155.89,-0.00033,51.82,,,,,,,
155.91,-0.0003,54.64,,,,,,,
155.94,-0.00028,57.38,,,,,,,
155.97,-0.00025,60.22,,,,,,,
156.01,-0.00022,63.13,,,,,,,
156.04,-0.0002,66.27,,,,,,,
388.33,-0.00016,65.81,,,,,,,
388.37,-0.00013,69.03,,,,,,,
388.4,-0.00011,72.08,,,,,,,
388.44,-8e-05,75.93,,,,,,,
388.48,-6e-05,79.81,,,,,,,
388.51,-3e-05,83.4,,,,,,,
388.54,-1e-05,86.79,,,,,,,
388.56,2e-05,90.07,,,,,,,
388.59,4e-05,93.57,,,,,,,
388.62,7e-05,96.74,,,,,,,
388.64,9e-05,100.35,,,,,,,
388.67,0.00012,103.73,,,,,,,
388.69,0.00015,107.12,,,,,,,
388.71,0.00017,110.49,,,,,,,
388.72,0.0002,113.6,,,,,,,
388.74,0.00022,116.95,,,,,,,
388.75,0.00025,119.95,,,,,,,
388.77,0.00027,123.4,,,,,,,
388.78,0.0003,126.44,,,,,,,
388.8,0.00032,129.54,,,,,,,
388.82,0.00035,132.69,,,,,,,
388.84,0.00038,135.6,,,,,,,
388.84,0.00038,136.72,,,,,,,
388.86,0.0004,138.76,,,,,,,
388.88,0.00043,141.87,,,,,,,
388.9,0.00045,144.65,,,,,,,
388.92,0.00048,147.38,,,,,,,
388.95,0.0005,150.2,,,,,,,
388.97,0.00053,152.97,,,,,,,
389.0,0.00056,155.98,,,,,,,
389.03,0.00058,159.08,,,,,,,
389.05,0.00061,161.87,,,,,,,
389.08,0.00063,164.54,,,,,,,
389.11,0.00066,167.59,,,,,,,
389.13,0.00068,170.45,,,,,,,
389.16,0.00071,173.54,,,,,,,
389.19,0.00073,176.26,,,,,,,
389.21,0.00076,178.83,,,,,,,
389.23,0.00078,181.32,,,,,,,
389.25,0.00081,180.78,,,,,,,
389.25,0.00084,180.95,,,,,,,
389.25,0.00087,181.16,,,,,,,
389.26,0.0009,181.35,,,,,,,
389.26,0.00093,181.54,,,,,,,
389.26,0.00096,181.78,,,,,,,
389.26,0.00099,182.04,,,,,,,
389.49,0.00101,177.2,,,,,,,
389.52,0.00104,180.38,,,,,,,
389.54,0.00106,183.4,,,,,,,
389.56,0.00109,186.67,,,,,,,
389.58,0.00111,189.72,,,,,,,
389.6,0.00114,192.54,,,,,,,
389.62,0.00117,193.22,,,,,,,
389.62,0.0012,193.57,,,,,,,
389.63,0.00123,193.82,,,,,,,
389.63,0.00126,194.05,,,,,,,
389.63,0.00129,194.43,,,,,,,
389.65,0.00132,194.78,,,,,,,
389.77,0.00134,194.47,,,,,,,
389.82,0.00137,196.25,,,,,,,
389.84,0.00138,197.71,,,,,,,
389.86,0.00139,198.88,,,,,,,
389.88,0.00142,201.48,,,,,,,
389.9,0.00145,203.19,,,,,,,
389.92,0.00147,202.59,,,,,,,
389.92,0.0015,200.26,,,,,,,
389.92,0.00153,200.34,,,,,,,
389.92,0.00158,200.66,,,,,,,
389.93,0.0016,200.71,,,,,,,
389.93,0.00163,200.79,,,,,,,
389.93,0.00166,200.91,,,,,,,
389.93,0.0017,200.99,,,,,,,
389.93,0.00172,201.09,,,,,,,
389.93,0.00175,201.2,,,,,,,
389.93,0.00179,201.44,,,,,,,
389.94,0.00182,201.7,,,,,,,
389.94,0.0018,202.13,,,,,,,
390.0,0.00177,191.83,,,,,,,
390.02,0.00174,187.13,,,,,,,
390.03,0.00172,182.87,,,,,,,
390.05,0.00169,178.8,,,,,,,
390.07,0.00167,174.85,,,,,,,
390.09,0.00164,171.28,,,,,,,
390.17,0.00167,173.98,,,,,,,
390.19,0.00169,177.36,,,,,,,
390.21,0.00172,180.53,,,,,,,
390.23,0.00175,183.67,,,,,,,
390.25,0.00177,186.7,,,,,,,
390.26,0.0018,189.66,,,,,,,
390.28,0.00182,192.55,,,,,,,
390.3,0.00185,195.23,,,,,,,
390.32,0.00187,197.89,,,,,,,
390.34,0.0019,200.67,,,,,,,
390.37,0.00192,203.08,,,,,,,
390.51,0.0019,192.11,,,,,,,
390.53,0.00187,187.59,,,,,,,
390.55,0.00185,183.07,,,,,,,
390.57,0.00182,178.81,,,,,,,
390.59,0.0018,174.41,,,,,,,
390.61,0.00177,170.58,,,,,,,
390.63,0.00175,166.75,,,,,,,
390.65,0.00172,162.75,,,,,,,
390.68,0.00169,158.61,,,,,,,
390.7,0.00167,154.49,,,,,,,
390.73,0.00164,150.26,,,,,,,
390.76,0.00162,145.98,,,,,,,
390.79,0.00159,141.79,,,,,,,
390.82,0.00157,137.99,,,,,,,
390.84,0.00155,134.18,,,,,,,
390.85,0.00154,133.58,,,,,,,
390.88,0.00152,129.36,,,,,,,
390.9,0.00149,125.35,,,,,,,
390.93,0.00147,120.64,,,,,,,
390.96,0.00144,117.05,,,,,,,
390.98,0.00142,113.25,,,,,,,
391.01,0.00139,109.16,,,,,,,
391.04,0.00136,105.29,,,,,,,
391.06,0.00134,101.46,,,,,,,
391.09,0.00131,97.73,,,,,,,
391.12,0.00129,93.64,,,,,,,
391.15,0.00126,89.81,,,,,,,
391.17,0.00124,85.95,,,,,,,
391.2,0.00121,81.88,,,,,,,
391.23,0.00118,78.19,,,,,,,
391.25,0.00116,74.35,,,,,,,
391.28,0.00113,70.54,,,,,,,
391.31,0.00111,66.78,,,,,,,
391.34,0.00108,63.09,,,,,,,
391.37,0.00106,59.33,,,,,,,
391.39,0.00103,55.65,,,,,,,
391.42,0.00101,52.14,,,,,,,
391.45,0.00098,48.38,,,,,,,
391.47,0.00095,44.86,,,,,,,
391.5,0.00093,41.15,,,,,,,
391.53,0.0009,37.61,,,,,,,
391.55,0.00088,33.88,,,,,,,
391.58,0.00085,30.09,,,,,,,
391.61,0.00083,26.57,,,,,,,
391.63,0.0008,23.29,,,,,,,
391.66,0.00078,20.09,,,,,,,
391.68,0.00075,16.71,,,,,,,
391.71,0.00073,13.3,,,,,,,
391.74,0.0007,9.97,,,,,,,
391.77,0.00067,6.2,,,,,,,
391.8,0.00065,2.59,,,,,,,
391.82,0.00062,-0.72,,,,,,,
391.84,0.00061,-3.1,,,,,,,
391.85,0.0006,-4.07,,,,,,,
391.87,0.00057,-7.27,,,,,,,
391.9,0.00055,-10.52,,,,,,,
391.93,0.00052,-13.62,,,,,,,
391.96,0.0005,-16.36,,,,,,,
392.01,0.00047,-18.93,,,,,,,
392.11,0.00045,-21.63,,,,,,,
392.15,0.00042,-24.87,,,,,,,
392.18,0.0004,-27.98,,,,,,,
392.21,0.00037,-31.31,,,,,,,
392.24,0.00035,-34.42,,,,,,,
392.27,0.00032,-37.79,,,,,,,
392.29,0.00029,-42.03,,,,,,,
392.31,0.00027,-45.67,,,,,,,
392.33,0.00024,-50.01,,,,,,,
392.34,0.00022,-53.76,,,,,,,
392.36,0.00019,-57.29,,,,,,,
392.37,0.00016,-60.56,,,,,,,
392.39,0.00014,-63.94,,,,,,,
392.4,0.00011,-67.06,,,,,,,
392.42,9e-05,-70.42,,,,,,,
392.44,6e-05,-74.21,,,,,,,
392.46,4e-05,-77.6,,,,,,,
392.48,1e-05,-80.89,,,,,,,
392.49,-2e-05,-84.23,,,,,,,
392.51,-4e-05,-87.43,,,,,,,
392.53,-7e-05,-90.53,,,,,,,
392.55,-9e-05,-93.86,,,,,,,
392.57,-0.00012,-97.14,,,,,,,
392.59,-0.00014,-100.22,,,,,,,
392.61,-0.00017,-103.44,,,,,,,
392.64,-0.0002,-106.97,,,,,,,
392.66,-0.00022,-110.19,,,,,,,
392.69,-0.00025,-113.27,,,,,,,
392.71,-0.00027,-116.37,,,,,,,
392.74,-0.0003,-119.39,,,,,,,
392.76,-0.00032,-122.18,,,,,,,
392.79,-0.00035,-125.15,,,,,,,
392.81,-0.00037,-128.35,,,,,,,
392.84,-0.0004,-131.51,,,,,,,
392.87,-0.00043,-134.41,,,,,,,
392.9,-0.00045,-137.73,,,,,,,
392.92,-0.00048,-141.02,,,,,,,
392.95,-0.0005,-143.94,,,,,,,
392.98,-0.00053,-146.98,,,,,,,
393.0,-0.00055,-149.79,,,,,,,
393.02,-0.00058,-152.78,,,,,,,
393.05,-0.0006,-155.6,,,,,,,
393.08,-0.00063,-158.66,,,,,,,
393.1,-0.00066,-161.43,,,,,,,
393.12,-0.00068,-164.06,,,,,,,
393.15,-0.00071,-166.49,,,,,,,
393.17,-0.00073,-169.12,,,,,,,
393.2,-0.00076,-171.68,,,,,,,
393.22,-0.00078,-174.15,,,,,,,
393.25,-0.00081,-176.52,,,,,,,
393.27,-0.00083,-178.88,,,,,,,
393.3,-0.00086,-181.08,,,,,,,
393.32,-0.00088,-182.93,,,,,,,
393.34,-0.00092,-181.98,,,,,,,
393.34,-0.00094,-182.15,,,,,,,
393.34,-0.00097,-182.31,,,,,,,
393.34,-0.001,-182.43,,,,,,,
393.35,-0.00103,-182.61,,,,,,,
393.35,-0.00106,-182.77,,,,,,,
393.35,-0.00108,-183.1,,,,,,,
393.49,-0.00106,-173.79,,,,,,,
393.57,-0.00108,-175.18,,,,,,,
393.59,-0.00111,-178.01,,,,,,,
393.62,-0.00113,-180.94,,,,,,,
393.64,-0.00116,-184.15,,,,,,,
393.66,-0.00119,-186.96,,,,,,,
393.68,-0.00121,-189.71,,,,,,,
393.7,-0.00124,-192.33,,,,,,,
393.72,-0.00126,-193.66,,,,,,,
393.73,-0.00129,-193.76,,,,,,,
393.73,-0.00132,-193.9,,,,,,,
393.73,-0.00135,-194.05,,,,,,,
393.74,-0.00138,-194.22,,,,,,,
393.75,-0.0014,-195.77,,,,,,,
393.84,-0.00142,-194.38,,,,,,,
393.89,-0.00143,-195.11,,,,,,,
393.93,-0.00145,-197.46,,,,,,,
393.96,-0.00148,-200.11,,,,,,,
393.98,-0.00151,-202.52,,,,,,,
394.0,-0.00153,-199.86,,,,,,,
394.01,-0.00156,-200.06,,,,,,,
394.01,-0.0016,-200.42,,,,,,,
394.01,-0.00162,-200.54,,,,,,,
394.01,-0.00165,-200.63,,,,,,,
394.01,-0.00169,-200.75,,,,,,,
394.01,-0.00172,-200.85,,,,,,,
394.01,-0.00176,-200.98,,,,,,,
394.01,-0.00179,-201.12,,,,,,,
394.01,-0.00182,-201.25,,,,,,,
394.02,-0.00185,-201.38,,,,,,,
394.02,-0.00189,-201.62,,,,,,,
394.08,-0.00186,-193.86,,,,,,,
394.1,-0.00183,-189.49,,,,,,,
394.11,-0.00181,-185.39,,,,,,,
394.13,-0.00178,-181.2,,,,,,,
394.14,-0.00175,-177.26,,,,,,,
394.16,-0.00173,-173.69,,,,,,,
394.28,-0.00176,-177.57,,,,,,,
394.29,-0.00178,-180.94,,,,,,,
394.31,-0.00181,-184.65,,,,,,,
394.33,-0.00183,-188.33,,,,,,,
394.35,-0.00186,-191.76,,,,,,,
394.37,-0.00189,-195.15,,,,,,,
394.39,-0.00191,-197.89,,,,,,,
394.41,-0.00194,-199.78,,,,,,,
394.52,-0.00191,-188.62,,,,,,,
394.54,-0.00189,-184.17,,,,,,,
394.55,-0.00186,-179.86,,,,,,,
394.57,-0.00183,-175.46,,,,,,,
394.59,-0.00181,-171.04,,,,,,,
394.61,-0.00178,-166.67,,,,,,,
394.63,-0.00176,-162.49,,,,,,,
394.65,-0.00173,-158.34,,,,,,,
394.67,-0.00171,-154.33,,,,,,,
394.69,-0.00168,-150.57,,,,,,,
394.72,-0.00165,-145.93,,,,,,,
394.75,-0.00163,-141.42,,,,,,,
394.78,-0.0016,-136.91,,,,,,,
394.81,-0.00158,-132.75,,,,,,,
394.83,-0.00155,-128.56,,,,,,,
394.84,-0.00154,-127.21,,,,,,,
394.86,-0.00153,-124.24,,,,,,,
394.89,-0.0015,-119.91,,,,,,,
394.92,-0.00147,-115.97,,,,,,,
394.95,-0.00145,-111.91,,,,,,,
394.97,-0.00142,-108.08,,,,,,,
394.99,-0.0014,-104.54,,,,,,,
395.02,-0.00137,-101.14,,,,,,,
395.04,-0.00135,-97.52,,,,,,,
395.07,-0.00132,-93.59,,,,,,,
395.1,-0.0013,-89.67,,,,,,,
395.13,-0.00127,-85.56,,,,,,,
395.16,-0.00124,-81.12,,,,,,,
395.19,-0.00122,-77.01,,,,,,,
395.22,-0.00119,-72.7,,,,,,,
395.25,-0.00117,-68.36,,,,,,,
395.28,-0.00114,-64.55,,,,,,,
395.3,-0.00112,-60.74,,,,,,,
395.33,-0.00109,-56.89,,,,,,,
395.35,-0.00107,-53.66,,,,,,,
395.37,-0.00104,-49.99,,,,,,,
395.4,-0.00102,-46.11,,,,,,,
395.43,-0.00099,-41.86,,,,,,,
395.46,-0.00096,-37.78,,,,,,,
395.49,-0.00094,-34.04,,,,,,,
395.52,-0.00091,-29.93,,,,,,,
395.55,-0.00089,-25.78,,,,,,,
395.57,-0.00086,-21.88,,,,,,,
395.6,-0.00084,-18.43,,,,,,,
395.62,-0.00081,-15.21,,,,,,,
395.65,-0.00079,-11.15,,,,,,,
395.68,-0.00076,-7.25,,,,,,,
395.71,-0.00073,-3.11,,,,,,,
395.73,-0.00071,0.34,,,,,,,
395.76,-0.00068,3.67,,,,,,,
395.79,-0.00066,7.59,,,,,,,
395.81,-0.00063,11.41,,,,,,,
395.84,-0.00061,15.22,,,,,,,
395.87,-0.00058,18.62,,,,,,,
395.89,-0.00056,22.21,,,,,,,
395.92,-0.00053,25.37,,,,,,,
395.96,-0.00051,28.69,,,,,,,
396.01,-0.00048,32.06,,,,,,,
396.05,-0.00045,35.85,,,,,,,
396.08,-0.00043,39.77,,,,,,,
396.1,-0.0004,43.21,,,,,,,
396.12,-0.00038,47.27,,,,,,,
396.14,-0.00035,50.38,,,,,,,
396.16,-0.00033,53.67,,,,,,,
396.19,-0.0003,57.32,,,,,,,
396.21,-0.00028,60.25,,,,,,,
396.25,-0.00025,63.56,,,,,,,
396.28,-0.00022,66.76,,,,,,,
396.32,-0.0002,69.87,,,,,,,
788.77,-0.00019,77.67,,,,,,,
788.8,-0.00017,80.46,,,,,,,
788.83,-0.00014,83.6,,,,,,,
788.84,-0.00013,84.83,,,,,,,
788.86,-0.00011,86.63,,,,,,,
788.89,-9e-05,89.56,,,,,,,
788.92,-6e-05,92.54,,,,,,,
788.94,-4e-05,95.39,,,,,,,
788.97,-1e-05,98.58,,,,,,,
789.0,1e-05,102.1,,,,,,,
789.02,4e-05,105.34,,,,,,,
789.04,6e-05,108.84,,,,,,,
789.05,9e-05,112.39,,,,,,,
789.07,0.00012,115.49,,,,,,,
789.08,0.00014,118.6,,,,,,,
789.1,0.00017,121.77,,,,,,,
789.12,0.00019,124.87,,,,,,,
789.13,0.00022,128.03,,,,,,,
789.15,0.00024,131.12,,,,,,,
789.17,0.00027,134.03,,,,,,,
789.19,0.0003,136.91,,,,,,,
789.21,0.00032,139.83,,,,,,,
789.24,0.00035,142.92,,,,,,,
789.26,0.00037,146.03,,,,,,,
789.29,0.0004,148.96,,,,,,,
789.31,0.00042,151.78,,,,,,,
789.33,0.00045,154.17,,,,,,,
789.36,0.00047,156.8,,,,,,,
789.38,0.0005,159.57,,,,,,,
789.41,0.00052,162.22,,,,,,,
789.43,0.00055,164.61,,,,,,,
789.46,0.00058,167.24,,,,,,,
789.48,0.0006,169.75,,,,,,,
789.51,0.00063,172.18,,,,,,,
789.54,0.00065,174.94,,,,,,,
789.56,0.00068,177.46,,,,,,,
789.59,0.0007,180.03,,,,,,,
789.62,0.00073,182.92,,,,,,,
789.65,0.00075,185.72,,,,,,,
789.67,0.00078,185.17,,,,,,,
789.67,0.00081,185.33,,,,,,,
789.68,0.00083,185.47,,,,,,,
789.68,0.00086,185.61,,,,,,,
789.68,0.0009,185.81,,,,,,,
789.68,0.00092,186.03,,,,,,,
789.68,0.00095,186.33,,,,,,,
789.73,0.00098,186.62,,,,,,,
789.84,0.00096,179.27,,,,,,,
789.91,0.001,182.61,,,,,,,
789.94,0.00103,185.34,,,,,,,
789.96,0.00105,188.42,,,,,,,
789.99,0.00108,191.11,,,,,,,
790.01,0.0011,193.58,,,,,,,
790.03,0.00113,196.1,,,,,,,
790.05,0.00115,198.63,,,,,,,
790.06,0.00118,196.38,,,,,,,
790.06,0.00122,196.73,,,,,,,
790.07,0.00125,196.92,,,,,,,
790.07,0.00128,197.13,,,,,,,
790.07,0.00131,197.33,,,,,,,
790.07,0.00134,197.64,,,,,,,
790.27,0.00136,193.83,,,,,,,
790.3,0.00139,196.73,,,,,,,
790.33,0.00142,199.8,,,,,,,
790.36,0.00144,203.04,,,,,,,
790.38,0.00147,206.28,,,,,,,
790.4,0.00149,209.1,,,,,,,
790.42,0.00152,204.91,,,,,,,
790.43,0.00155,205.49,,,,,,,
790.43,0.00159,205.8,,,,,,,
790.43,0.00162,206.04,,,,,,,
790.43,0.00164,206.35,,,,,,,
790.44,0.00167,206.7,,,,,,,
790.44,0.0017,205.31,,,,,,,
790.45,0.00174,205.63,,,,,,,
790.45,0.00178,205.75,,,,,,,
790.45,0.00182,205.83,,,,,,,
790.45,0.00185,206.01,,,,,,,
790.46,0.00188,206.12,,,,,,,
790.52,0.00185,195.95,,,,,,,
790.53,0.00183,191.19,,,,,,,
790.55,0.0018,187.0,,,,,,,
790.56,0.00178,183.06,,,,,,,
790.58,0.00175,179.45,,,,,,,
790.6,0.00173,176.0,,,,,,,
790.63,0.0017,173.48,,,,,,,
790.69,0.00173,178.71,,,,,,,
790.71,0.00175,182.27,,,,,,,
790.73,0.00178,185.92,,,,,,,
790.75,0.0018,189.42,,,,,,,
790.76,0.00183,192.45,,,,,,,
790.78,0.00186,195.72,,,,,,,
790.79,0.00188,199.05,,,,,,,
790.81,0.00191,202.24,,,,,,,
790.83,0.00193,204.89,,,,,,,
790.84,0.00194,205.41,,,,,,,
790.95,0.00191,195.54,,,,,,,
790.97,0.00188,191.06,,,,,,,
790.99,0.00186,186.59,,,,,,,
791.01,0.00183,182.27,,,,,,,
791.03,0.0018,178.07,,,,,,,
791.05,0.00178,173.85,,,,,,,
791.07,0.00175,169.96,,,,,,,
791.08,0.00173,165.99,,,,,,,
791.1,0.0017,162.51,,,,,,,
791.12,0.00168,159.08,,,,,,,
791.15,0.00165,155.38,,,,,,,
791.18,0.00163,151.52,,,,,,,
791.21,0.0016,147.35,,,,,,,
791.24,0.00158,143.44,,,,,,,
791.27,0.00155,138.93,,,,,,,
791.3,0.00153,135.21,,,,,,,
791.32,0.0015,131.56,,,,,,,
791.35,0.00147,127.55,,,,,,,
791.38,0.00145,123.43,,,,,,,
791.41,0.00142,119.61,,,,,,,
791.44,0.0014,116.01,,,,,,,
791.46,0.00137,112.44,,,,,,,
791.49,0.00135,108.64,,,,,,,
791.52,0.00132,104.68,,,,,,,
791.54,0.0013,100.98,,,,,,,
791.57,0.00127,97.4,,,,,,,
791.59,0.00124,94.01,,,,,,,
791.62,0.00122,90.33,,,,,,,
791.65,0.00119,86.69,,,,,,,
791.67,0.00117,83.19,,,,,,,
791.7,0.00114,79.57,,,,,,,
791.73,0.00112,75.8,,,,,,,
791.76,0.00109,71.75,,,,,,,
791.79,0.00107,68.02,,,,,,,
791.81,0.00104,64.81,,,,,,,
791.84,0.00102,61.21,,,,,,,
791.84,0.00101,60.93,,,,,,,
791.87,0.00099,57.66,,,,,,,
791.9,0.00096,54.0,,,,,,,
791.92,0.00094,50.66,,,,,,,
791.95,0.00091,47.33,,,,,,,
791.97,0.00089,43.93,,,,,,,
792.0,0.00086,39.97,,,,,,,
792.03,0.00084,36.32,,,,,,,
792.06,0.00081,33.15,,,,,,,
792.09,0.00079,29.09,,,,,,,
792.11,0.00076,25.66,,,,,,,
792.14,0.00074,22.04,,,,,,,
792.17,0.00071,17.95,,,,,,,
792.2,0.00069,14.45,,,,,,,
792.22,0.00066,10.64,,,,,,,
792.25,0.00064,6.66,,,,,,,
792.28,0.00061,2.81,,,,,,,
792.31,0.00058,-0.79,,,,,,,
792.34,0.00056,-4.94,,,,,,,
792.36,0.00053,-8.32,,,,,,,
792.39,0.00051,-11.72,,,,,,,
792.41,0.00048,-15.09,,,,,,,
792.45,0.00046,-18.25,,,,,,,
792.5,0.00043,-21.08,,,,,,,
792.62,0.00041,-26.24,,,,,,,
792.65,0.00038,-29.89,,,,,,,
792.68,0.00036,-33.27,,,,,,,
792.7,0.00033,-36.25,,,,,,,
792.73,0.00031,-40.1,,,,,,,
792.76,0.00028,-43.68,,,,,,,
792.77,0.00026,-47.25,,,,,,,
792.79,0.00023,-50.74,,,,,,,
792.8,0.0002,-54.64,,,,,,,
792.81,0.00018,-57.8,,,,,,,
792.83,0.00015,-61.16,,,,,,,
792.84,0.00012,-64.46,,,,,,,
792.84,0.00012,-64.9,,,,,,,
792.86,0.0001,-67.58,,,,,,,
792.87,7e-05,-70.7,,,,,,,
792.89,5e-05,-73.99,,,,,,,
792.91,2e-05,-76.94,,,,,,,
792.93,-0.0,-80.49,,,,,,,
792.95,-3e-05,-83.9,,,,,,,
792.97,-5e-05,-87.15,,,,,,,
792.98,-8e-05,-90.34,,,,,,,
793.0,-0.00011,-93.57,,,,,,,
793.02,-0.00013,-96.78,,,,,,,
793.04,-0.00016,-99.99,,,,,,,
793.06,-0.00018,-102.82,,,,,,,
793.08,-0.00021,-105.63,,,,,,,
793.1,-0.00023,-108.61,,,,,,,
793.13,-0.00026,-111.76,,,,,,,
793.16,-0.00029,-114.77,,,,,,,
793.18,-0.00031,-117.63,,,,,,,
793.21,-0.00034,-120.4,,,,,,,
793.24,-0.00036,-123.53,,,,,,,
793.26,-0.00039,-126.45,,,,,,,
793.29,-0.00041,-129.34,,,,,,,
793.31,-0.00044,-132.23,,,,,,,
793.34,-0.00046,-135.03,,,,,,,
793.36,-0.00049,-137.69,,,,,,,
793.39,-0.00051,-140.42,,,,,,,
793.41,-0.00054,-143.27,,,,,,,
793.44,-0.00056,-146.14,,,,,,,
793.47,-0.00059,-148.75,,,,,,,
793.49,-0.00062,-151.61,,,,,,,
793.52,-0.00064,-154.23,,,,,,,
793.54,-0.00067,-156.77,,,,,,,
793.57,-0.00069,-159.54,,,,,,,
793.6,-0.00072,-162.4,,,,,,,
793.63,-0.00074,-165.2,,,,,,,
793.66,-0.00077,-167.93,,,,,,,
793.68,-0.00079,-170.61,,,,,,,
793.71,-0.00082,-173.21,,,,,,,
793.73,-0.00085,-175.92,,,,,,,
793.76,-0.00087,-178.8,,,,,,,
793.79,-0.0009,-181.3,,,,,,,
793.81,-0.00092,-181.58,,,,,,,
793.83,-0.00095,-183.96,,,,,,,
793.84,-0.00096,-185.23,,,,,,,
793.85,-0.00097,-186.29,,,,,,,
793.87,-0.001,-187.3,,,,,,,
793.88,-0.00103,-187.54,,,,,,,
793.88,-0.00106,-187.87,,,,,,,
793.88,-0.00109,-188.02,,,,,,,
793.89,-0.00111,-188.39,,,,,,,
793.93,-0.00114,-189.52,,,,,,,
794.04,-0.00116,-187.21,,,,,,,
794.09,-0.00119,-188.97,,,,,,,
794.12,-0.00121,-191.58,,,,,,,
794.15,-0.00124,-194.27,,,,,,,
794.17,-0.00126,-197.04,,,,,,,
794.19,-0.00129,-195.31,,,,,,,
794.19,-0.00132,-195.66,,,,,,,
794.19,-0.00135,-195.91,,,,,,,
794.2,-0.00137,-196.12,,,,,,,
794.2,-0.0014,-196.35,,,,,,,
794.2,-0.00142,-196.72,,,,,,,
794.23,-0.00145,-198.97,,,,,,,
794.34,-0.00147,-197.0,,,,,,,
794.41,-0.0015,-198.56,,,,,,,
794.44,-0.00153,-200.98,,,,,,,
794.46,-0.00155,-203.63,,,,,,,
794.49,-0.00158,-206.76,,,,,,,
794.51,-0.0016,-209.44,,,,,,,
794.52,-0.00163,-201.94,,,,,,,
794.53,-0.00166,-202.3,,,,,,,
794.53,-0.00169,-202.79,,,,,,,
794.54,-0.00171,-203.52,,,,,,,
794.56,-0.00174,-206.05,,,,,,,
794.59,-0.00176,-207.63,,,,,,,
794.66,-0.00179,-208.45,,,,,,,
794.71,-0.00181,-210.03,,,,,,,
794.74,-0.00184,-212.23,,,,,,,
794.76,-0.00187,-209.96,,,,,,,
794.76,-0.0019,-210.14,,,,,,,
794.76,-0.00195,-210.27,,,,,,,
794.76,-0.00198,-210.36,,,,,,,
794.76,-0.00201,-210.45,,,,,,,
794.76,-0.00204,-210.54,,,,,,,
794.76,-0.00207,-210.62,,,,,,,
794.76,-0.0021,-210.68,,,,,,,
794.77,-0.00214,-210.9,,,,,,,
794.77,-0.00217,-211.16,,,,,,,
794.78,-0.00215,-211.51,,,,,,,
794.84,-0.00212,-199.99,,,,,,,
794.84,-0.00212,-199.36,,,,,,,
794.85,-0.00209,-195.34,,,,,,,
794.87,-0.00207,-190.75,,,,,,,
794.88,-0.00204,-185.98,,,,,,,
794.89,-0.00202,-181.53,,,,,,,
794.9,-0.00199,-177.24,,,,,,,
794.91,-0.00196,-173.13,,,,,,,
794.92,-0.00194,-169.17,,,,,,,
794.93,-0.00191,-165.43,,,,,,,
794.94,-0.00188,-161.7,,,,,,,
794.96,-0.00186,-157.61,,,,,,,
794.97,-0.00183,-153.69,,,,,,,
794.99,-0.00181,-149.91,,,,,,,
795.01,-0.00178,-146.18,,,,,,,
795.03,-0.00176,-142.56,,,,,,,
795.05,-0.00173,-138.95,,,,,,,
795.08,-0.0017,-135.03,,,,,,,
795.12,-0.00168,-131.28,,,,,,,
795.16,-0.00165,-126.88,,,,,,,
795.19,-0.00163,-122.92,,,,,,,
795.22,-0.0016,-118.76,,,,,,,
795.25,-0.00158,-114.93,,,,,,,
795.28,-0.00155,-110.88,,,,,,,
795.31,-0.00153,-106.54,,,,,,,
795.33,-0.0015,-102.31,,,,,,,
795.36,-0.00147,-98.76,,,,,,,
795.38,-0.00145,-95.03,,,,,,,
795.41,-0.00142,-91.25,,,,,,,
795.44,-0.0014,-87.17,,,,,,,
795.47,-0.00137,-83.12,,,,,,,
795.49,-0.00135,-79.74,,,,,,,
795.51,-0.00132,-76.3,,,,,,,
795.54,-0.0013,-72.78,,,,,,,
795.56,-0.00127,-69.54,,,,,,,
795.59,-0.00124,-66.42,,,,,,,
795.62,-0.00122,-62.86,,,,,,,
795.65,-0.00119,-58.74,,,,,,,
795.68,-0.00117,-55.15,,,,,,,
795.71,-0.00114,-51.24,,,,,,,
795.74,-0.00112,-47.28,,,,,,,
795.77,-0.00109,-43.09,,,,,,,
795.79,-0.00107,-39.15,,,,,,,
795.82,-0.00104,-35.15,,,,,,,
795.84,-0.00102,-32.17,,,,,,,
795.85,-0.00102,-31.47,,,,,,,
795.87,-0.00099,-27.89,,,,,,,
795.9,-0.00097,-24.25,,,,,,,
795.92,-0.00094,-20.57,,,,,,,
795.95,-0.00091,-16.72,,,,,,,
795.98,-0.00089,-13.34,,,,,,,
796.0,-0.00086,-9.92,,,,,,,
796.03,-0.00084,-6.67,,,,,,,
796.06,-0.00081,-2.8,,,,,,,
796.08,-0.00079,0.72,,,,,,,
796.11,-0.00076,4.03,,,,,,,
796.14,-0.00074,7.61,,,,,,,
796.17,-0.00071,11.02,,,,,,,
796.19,-0.00068,14.54,,,,,,,
796.22,-0.00066,17.8,,,,,,,
796.25,-0.00063,21.15,,,,,,,
796.27,-0.00061,24.25,,,,,,,
796.3,-0.00058,27.14,,,,,,,
796.35,-0.00056,30.24,,,,,,,
796.41,-0.00053,34.37,,,,,,,
796.44,-0.00051,38.68,,,,,,,
796.46,-0.00048,42.63,,,,,,,
796.48,-0.00046,46.43,,,,,,,
796.5,-0.00043,49.47,,,,,,,
796.52,-0.0004,52.54,,,,,,,
796.54,-0.00038,55.93,,,,,,,
796.57,-0.00035,58.99,,,,,,,
796.6,-0.00033,62.25,,,,,,,
796.64,-0.0003,65.71,,,,,,,
796.67,-0.00028,68.47,,,,,,,
796.71,-0.00025,72.18,,,,,,,
796.74,-0.00023,75.45,,,,,,,
796.78,-0.0002,79.01,,,,,,,
1589.65,-0.00013,53.15,,,,,,,
1589.69,-0.00011,56.63,,,,,,,
1589.73,-8e-05,60.42,,,,,,,
1589.78,-6e-05,64.81,,,,,,,
1589.81,-3e-05,68.72,,,,,,,
1589.84,-1e-05,72.4,,,,,,,
1589.84,-1e-05,72.53,,,,,,,
1589.87,2e-05,76.01,,,,,,,
1589.89,4e-05,79.18,,,,,,,
1589.92,7e-05,82.4,,,,,,,
1589.95,9e-05,85.88,,,,,,,
1589.98,0.00012,89.5,,,,,,,
1590.01,0.00015,93.12,,,,,,,
1590.04,0.00017,96.5,,,,,,,
1590.07,0.0002,99.87,,,,,,,
1590.1,0.00022,103.12,,,,,,,
1590.12,0.00025,106.94,,,,,,,
1590.14,0.00027,110.55,,,,,,,
1590.16,0.0003,114.12,,,,,,,
1590.17,0.00032,117.64,,,,,,,
1590.19,0.00035,121.05,,,,,,,
1590.2,0.00038,124.17,,,,,,,
1590.22,0.0004,127.41,,,,,,,
1590.23,0.00043,130.72,,,,,,,
1590.25,0.00045,134.17,,,,,,,
1590.27,0.00048,137.63,,,,,,,
1590.29,0.0005,140.79,,,,,,,
1590.31,0.00053,143.74,,,,,,,
1590.33,0.00055,146.56,,,,,,,
1590.35,0.00058,149.26,,,,,,,
1590.37,0.00061,152.09,,,,,,,
1590.4,0.00063,155.15,,,,,,,
1590.42,0.00066,157.84,,,,,,,
1590.45,0.00068,160.45,,,,,,,
1590.47,0.00071,163.11,,,,,,,
1590.5,0.00073,165.92,,,,,,,
1590.53,0.00076,168.32,,,,,,,
1590.55,0.00078,170.6,,,,,,,
1590.58,0.00081,173.3,,,,,,,
1590.6,0.00084,175.91,,,,,,,
1590.62,0.00086,178.26,,,,,,,
1590.65,0.00089,180.88,,,,,,,
1590.68,0.00091,182.92,,,,,,,
1590.7,0.00094,185.18,,,,,,,
1590.73,0.00096,187.43,,,,,,,
1590.75,0.00099,189.47,,,,,,,
1590.77,0.00101,188.38,,,,,,,
1590.77,0.00105,188.67,,,,,,,
1590.77,0.00107,188.81,,,,,,,
1590.77,0.0011,189.0,,,,,,,
1590.78,0.00113,189.14,,,,,,,
1590.78,0.00115,189.44,,,,,,,
1590.8,0.00118,190.26,,,,,,,
1590.84,0.00119,188.11,,,,,,,
1591.0,0.0012,185.44,,,,,,,
1591.02,0.00123,188.25,,,,,,,
1591.05,0.00126,191.09,,,,,,,
1591.07,0.00128,193.63,,,,,,,
1591.09,0.00131,196.3,,,,,,,
1591.11,0.00133,198.83,,,,,,,
1591.13,0.00136,201.16,,,,,,,
1591.14,0.00139,198.18,,,,,,,
1591.14,0.00142,198.58,,,,,,,
1591.15,0.00145,198.8,,,,,,,
1591.15,0.00148,199.0,,,,,,,
1591.15,0.00151,199.37,,,,,,,
1591.19,0.00154,201.18,,,,,,,
1591.35,0.00156,198.03,,,,,,,
1591.38,0.00159,200.84,,,,,,,
1591.41,0.00161,203.84,,,,,,,
1591.43,0.00164,206.7,,,,,,,
1591.46,0.00166,209.58,,,,,,,
1591.47,0.00169,205.73,,,,,,,
1591.48,0.00174,206.16,,,,,,,
1591.48,0.00177,206.28,,,,,,,
1591.48,0.0018,206.39,,,,,,,
1591.48,0.00183,206.52,,,,,,,
1591.48,0.00186,206.62,,,,,,,
1591.48,0.0019,206.74,,,,,,,
1591.48,0.00193,206.87,,,,,,,
1591.48,0.00197,207.0,,,,,,,
1591.48,0.00199,207.16,,,,,,,
1591.49,0.00203,207.39,,,,,,,
1591.5,0.00201,208.27,,,,,,,
1591.56,0.00198,197.62,,,,,,,
1591.58,0.00195,192.75,,,,,,,
1591.6,0.00193,187.91,,,,,,,
1591.61,0.0019,184.59,,,,,,,
1591.64,0.00188,180.85,,,,,,,
1591.84,0.00187,176.84,,,,,,,
1591.86,0.00185,173.87,,,,,,,
1591.89,0.00183,169.98,,,,,,,
1591.91,0.0018,166.05,,,,,,,
1591.93,0.00178,161.9,,,,,,,
1591.96,0.00175,157.73,,,,,,,
1591.98,0.00172,153.46,,,,,,,
1592.0,0.0017,149.42,,,,,,,
1592.03,0.00167,145.78,,,,,,,
1592.05,0.00165,142.0,,,,,,,
1592.07,0.00162,138.07,,,,,,,
1592.1,0.0016,134.4,,,,,,,
1592.12,0.00157,130.74,,,,,,,
1592.15,0.00155,127.33,,,,,,,
1592.18,0.00152,123.87,,,,,,,
1592.2,0.00149,120.67,,,,,,,
1592.23,0.00147,117.32,,,,,,,
1592.26,0.00144,113.54,,,,,,,
1592.29,0.00142,109.89,,,,,,,
1592.32,0.00139,106.47,,,,,,,
1592.35,0.00137,102.82,,,,,,,
1592.37,0.00134,99.13,,,,,,,
1592.4,0.00132,95.74,,,,,,,
1592.42,0.00129,92.52,,,,,,,
1592.45,0.00127,89.03,,,,,,,
1592.48,0.00124,85.58,,,,,,,
1592.51,0.00122,81.87,,,,,,,
1592.53,0.00119,78.54,,,,,,,
1592.55,0.00116,75.45,,,,,,,
1592.58,0.00114,72.2,,,,,,,
1592.61,0.00111,68.79,,,,,,,
1592.63,0.00109,65.76,,,,,,,
1592.66,0.00106,62.69,,,,,,,
1592.69,0.00104,59.08,,,,,,,
1592.72,0.00101,55.38,,,,,,,
1592.75,0.00099,51.76,,,,,,,
1592.78,0.00096,48.22,,,,,,,
1592.81,0.00094,44.62,,,,,,,
1592.84,0.00091,40.47,,,,,,,
1592.84,0.00091,39.97,,,,,,,
1592.87,0.00088,36.73,,,,,,,
1592.89,0.00086,32.92,,,,,,,
1592.92,0.00083,29.57,,,,,,,
1592.94,0.00081,26.22,,,,,,,
1592.97,0.00078,22.92,,,,,,,
1592.99,0.00076,19.47,,,,,,,
1593.02,0.00073,15.77,,,,,,,
1593.05,0.00071,12.05,,,,,,,
1593.09,0.00068,7.63,,,,,,,
1593.12,0.00065,3.69,,,,,,,
1593.14,0.00063,-0.11,,,,,,,
1593.17,0.0006,-3.75,,,,,,,
1593.2,0.00058,-7.2,,,,,,,
1593.22,0.00055,-10.68,,,,,,,
1593.25,0.00053,-14.47,,,,,,,
1593.28,0.0005,-17.48,,,,,,,
1593.34,0.00048,-20.92,,,,,,,
1593.44,0.00045,-25.37,,,,,,,
1593.48,0.00043,-28.69,,,,,,,
1593.51,0.0004,-32.4,,,,,,,
1593.55,0.00037,-36.87,,,,,,,
1593.58,0.00035,-40.76,,,,,,,
1593.6,0.00032,-44.92,,,,,,,
1593.62,0.0003,-48.84,,,,,,,
1593.63,0.00027,-53.03,,,,,,,
1593.64,0.00024,-56.69,,,,,,,
1593.66,0.00022,-60.47,,,,,,,
1593.67,0.00019,-63.95,,,,,,,
1593.69,0.00017,-67.07,,,,,,,
1593.7,0.00014,-70.24,,,,,,,
1593.72,0.00011,-73.24,,,,,,,
1593.74,9e-05,-76.58,,,,,,,
1593.75,6e-05,-80.08,,,,,,,
1593.77,4e-05,-83.54,,,,,,,
1593.79,1e-05,-87.02,,,,,,,
1593.81,-1e-05,-90.51,,,,,,,
1593.83,-4e-05,-94.12,,,,,,,
1593.84,-6e-05,-96.59,,,,,,,
1593.85,-6e-05,-97.6,,,,,,,
1593.87,-9e-05,-101.07,,,,,,,
1593.89,-0.00012,-104.32,,,,,,,
1593.91,-0.00014,-107.54,,,,,,,
1593.93,-0.00017,-110.57,,,,,,,
1593.95,-0.00019,-113.37,,,,,,,
1593.97,-0.00022,-116.26,,,,,,,
1593.99,-0.00024,-119.01,,,,,,,
1594.02,-0.00027,-121.88,,,,,,,
1594.04,-0.00029,-124.84,,,,,,,
1594.07,-0.00032,-127.87,,,,,,,
1594.1,-0.00035,-131.28,,,,,,,
1594.13,-0.00037,-134.2,,,,,,,
1594.15,-0.0004,-136.88,,,,,,,
1594.18,-0.00042,-139.58,,,,,,,
1594.2,-0.00045,-142.11,,,,,,,
1594.23,-0.00047,-144.81,,,,,,,
1594.25,-0.0005,-147.72,,,,,,,
1594.28,-0.00052,-150.66,,,,,,,
1594.31,-0.00055,-153.52,,,,,,,
1594.34,-0.00058,-156.33,,,,,,,
1594.36,-0.0006,-159.06,,,,,,,
1594.39,-0.00063,-161.55,,,,,,,
1594.41,-0.00065,-163.93,,,,,,,
1594.43,-0.00068,-166.41,,,,,,,
1594.46,-0.0007,-168.93,,,,,,,
1594.49,-0.00073,-171.67,,,,,,,
1594.52,-0.00075,-174.52,,,,,,,
1594.54,-0.00078,-177.27,,,,,,,
1594.57,-0.0008,-179.68,,,,,,,
1594.59,-0.00083,-182.11,,,,,,,
1594.62,-0.00085,-184.64,,,,,,,
1594.64,-0.00088,-186.99,,,,,,,
1594.67,-0.00091,-189.43,,,,,,,
1594.69,-0.00093,-191.62,,,,,,,
1594.72,-0.00096,-193.83,,,,,,,
1594.73,-0.00098,-191.87,,,,,,,
1594.73,-0.00102,-192.15,,,,,,,
1594.73,-0.00106,-192.32,,,,,,,
1594.73,-0.0011,-192.47,,,,,,,
1594.74,-0.00114,-192.62,,,,,,,
1594.74,-0.00117,-192.81,,,,,,,
1594.74,-0.0012,-193.13,,,,,,,
1594.83,-0.00117,-183.1,,,,,,,
1594.84,-0.00116,-181.04,,,,,,,
1594.86,-0.00115,-178.64,,,,,,,
1594.91,-0.00112,-174.5,,,,,,,
1594.97,-0.00115,-177.63,,,,,,,
1595.0,-0.00117,-181.16,,,,,,,
1595.02,-0.0012,-184.36,,,,,,,
1595.04,-0.00123,-187.49,,,,,,,
1595.06,-0.00125,-190.65,,,,,,,
1595.07,-0.00128,-193.73,,,,,,,
1595.09,-0.0013,-196.82,,,,,,,
1595.11,-0.00133,-199.58,,,,,,,
1595.13,-0.00135,-202.4,,,,,,,
1595.16,-0.00138,-204.97,,,,,,,
1595.18,-0.00141,-207.4,,,,,,,
1595.19,-0.00143,-204.25,,,,,,,
1595.19,-0.00146,-204.49,,,,,,,
1595.2,-0.00149,-204.85,,,,,,,
1595.2,-0.00151,-205.46,,,,,,,
1595.24,-0.00154,-207.49,,,,,,,
1595.32,-0.00156,-207.7,,,,,,,
1595.38,-0.00159,-209.8,,,,,,,
1595.41,-0.00161,-212.59,,,,,,,
1595.44,-0.00164,-215.5,,,,,,,
1595.46,-0.00167,-209.58,,,,,,,
1595.46,-0.0017,-209.57,,,,,,,
1595.46,-0.00173,-209.72,,,,,,,
1595.46,-0.00177,-209.89,,,,,,,
1595.46,-0.00182,-209.97,,,,,,,
1595.46,-0.00187,-210.08,,,,,,,
1595.46,-0.00193,-210.14,,,,,,,
1595.46,-0.00198,-210.22,,,,,,,
1595.46,-0.00204,-210.34,,,,,,,
1595.46,-0.00209,-210.44,,,,,,,
1595.47,-0.00214,-210.58,,,,,,,
1595.47,-0.00217,-210.73,,,,,,,
1595.47,-0.0022,-210.82,,,,,,,
1595.47,-0.00223,-211.07,,,,,,,
1595.47,-0.0022,-211.43,,,,,,,
1595.48,-0.00217,-211.48,,,,,,,
1595.52,-0.00215,-199.61,,,,,,,
1595.53,-0.00212,-195.11,,,,,,,
1595.54,-0.0021,-190.8,,,,,,,
1595.54,-0.00207,-186.57,,,,,,,
1595.55,-0.00204,-182.12,,,,,,,
1595.56,-0.00202,-178.4,,,,,,,
1595.57,-0.00199,-174.36,,,,,,,
1595.58,-0.00196,-170.47,,,,,,,
1595.58,-0.00194,-166.86,,,,,,,
1595.59,-0.00191,-163.28,,,,,,,
1595.6,-0.00188,-159.66,,,,,,,
1595.61,-0.00186,-156.16,,,,,,,
1595.63,-0.00183,-153.04,,,,,,,
1595.65,-0.00181,-150.37,,,,,,,
1595.71,-0.00183,-155.0,,,,,,,
1595.73,-0.00186,-158.14,,,,,,,
1595.76,-0.00188,-161.12,,,,,,,
1595.84,-0.00189,-159.39,,,,,,,
1595.88,-0.00186,-153.16,,,,,,,
1595.91,-0.00183,-148.9,,,,,,,
1595.93,-0.00181,-144.56,,,,,,,
1595.95,-0.00178,-140.37,,,,,,,
1595.97,-0.00175,-136.2,,,,,,,
1595.99,-0.00173,-132.32,,,,,,,
1596.01,-0.0017,-128.45,,,,,,,
1596.03,-0.00168,-124.56,,,,,,,
1596.05,-0.00165,-120.62,,,,,,,
1596.08,-0.00163,-116.54,,,,,,,
1596.1,-0.0016,-112.71,,,,,,,
1596.13,-0.00158,-109.11,,,,,,,
1596.16,-0.00155,-105.23,,,,,,,
1596.19,-0.00152,-101.35,,,,,,,
1596.22,-0.0015,-97.09,,,,,,,
1596.25,-0.00147,-92.97,,,,,,,
1596.28,-0.00145,-88.98,,,,,,,
1596.3,-0.00142,-85.24,,,,,,,
1596.33,-0.0014,-81.17,,,,,,,
1596.36,-0.00137,-77.05,,,,,,,
1596.38,-0.00135,-73.36,,,,,,,
1596.41,-0.00132,-69.32,,,,,,,
1596.44,-0.0013,-65.32,,,,,,,
1596.47,-0.00127,-61.57,,,,,,,
1596.49,-0.00124,-57.81,,,,,,,
1596.52,-0.00122,-54.21,,,,,,,
1596.54,-0.00119,-50.46,,,,,,,
1596.57,-0.00117,-46.9,,,,,,,
1596.59,-0.00114,-43.17,,,,,,,
1596.62,-0.00112,-39.45,,,,,,,
1596.65,-0.00109,-35.41,,,,,,,
1596.68,-0.00107,-31.52,,,,,,,
1596.71,-0.00104,-27.73,,,,,,,
1596.74,-0.00102,-23.88,,,,,,,
1596.76,-0.00099,-20.2,,,,,,,
1596.79,-0.00096,-16.17,,,,,,,
1596.82,-0.00094,-12.33,,,,,,,
1596.84,-0.00091,-8.76,,,,,,,
1596.87,-0.00089,-5.27,,,,,,,
1596.9,-0.00086,-1.28,,,,,,,
1596.93,-0.00084,2.49,,,,,,,
1596.96,-0.00081,6.34,,,,,,,
1596.98,-0.00079,10.07,,,,,,,
1597.01,-0.00076,13.5,,,,,,,
1597.03,-0.00073,16.97,,,,,,,
1597.06,-0.00071,20.65,,,,,,,
1597.09,-0.00068,24.03,,,,,,,
1597.12,-0.00066,27.41,,,,,,,
1597.16,-0.00063,30.34,,,,,,,
1597.21,-0.00061,34.25,,,,,,,
1597.25,-0.00058,37.9,,,,,,,
1597.27,-0.00056,41.33,,,,,,,
1597.29,-0.00053,44.93,,,,,,,
1597.31,-0.00051,48.21,,,,,,,
1597.33,-0.00048,51.5,,,,,,,
1597.35,-0.00045,54.67,,,,,,,
1597.37,-0.00043,57.92,,,,,,,
1597.41,-0.0004,61.34,,,,,,,
1597.45,-0.00038,64.98,,,,,,,
1597.48,-0.00035,68.17,,,,,,,
1597.51,-0.00033,71.42,,,,,,,
1597.54,-0.0003,74.53,,,,,,,
1597.58,-0.00028,77.68,,,,,,,
1597.61,-0.00025,80.95,,,,,,,
1597.64,-0.00023,84.07,,,,,,,
3992.31,-0.00016,73.26,,,,,,,
3992.34,-0.00014,76.62,,,,,,,
3992.38,-0.00011,79.96,,,,,,,
3992.41,-9e-05,83.16,,,,,,,
3992.44,-6e-05,86.76,,,,,,,
3992.46,-4e-05,89.71,,,,,,,
3992.49,-1e-05,92.88,,,,,,,
3992.52,1e-05,95.94,,,,,,,
3992.54,4e-05,99.14,,,,,,,
3992.57,6e-05,102.15,,,,,,,
3992.6,9e-05,105.51,,,,,,,
3992.62,0.00012,108.9,,,,,,,
3992.63,0.00014,112.47,,,,,,,
3992.65,0.00017,116.12,,,,,,,
3992.67,0.00019,119.77,,,,,,,
3992.69,0.00022,123.05,,,,,,,
3992.7,0.00025,126.48,,,,,,,
3992.72,0.00027,129.83,,,,,,,
3992.74,0.0003,133.08,,,,,,,
3992.75,0.00032,136.32,,,,,,,
3992.77,0.00035,139.51,,,,,,,
3992.79,0.00037,142.38,,,,,,,
3992.81,0.0004,145.36,,,,,,,
3992.83,0.00043,148.25,,,,,,,
3992.84,0.00044,149.67,,,,,,,
3992.85,0.00045,150.93,,,,,,,
3992.88,0.00048,153.73,,,,,,,
3992.9,0.0005,156.53,,,,,,,
3992.93,0.00053,159.05,,,,,,,
3992.96,0.00055,161.85,,,,,,,
3992.99,0.00058,164.8,,,,,,,
3993.01,0.0006,167.19,,,,,,,
3993.04,0.00063,169.74,,,,,,,
3993.06,0.00065,172.46,,,,,,,
3993.09,0.00068,175.21,,,,,,,
3993.12,0.00071,177.93,,,,,,,
3993.14,0.00073,180.4,,,,,,,
3993.17,0.00076,183.18,,,,,,,
3993.19,0.00078,185.85,,,,,,,
3993.22,0.00081,188.61,,,,,,,
3993.24,0.00083,191.3,,,,,,,
3993.26,0.00086,193.37,,,,,,,
3993.27,0.00088,190.58,,,,,,,
3993.28,0.00092,190.89,,,,,,,
3993.28,0.00097,191.09,,,,,,,
3993.28,0.001,191.2,,,,,,,
3993.28,0.00103,191.29,,,,,,,
3993.28,0.00106,191.38,,,,,,,
3993.28,0.00109,191.5,,,,,,,
3993.28,0.00112,191.58,,,,,,,
3993.29,0.00116,191.81,,,,,,,
3993.29,0.00119,192.09,,,,,,,
3993.29,0.00116,192.45,,,,,,,
3993.36,0.00114,182.62,,,,,,,
3993.37,0.00111,177.97,,,,,,,
3993.39,0.00109,173.82,,,,,,,
3993.41,0.00106,169.68,,,,,,,
3993.44,0.00104,166.08,,,,,,,
3993.53,0.00106,169.77,,,,,,,
3993.55,0.00109,173.42,,,,,,,
3993.57,0.00111,176.88,,,,,,,
3993.59,0.00114,180.44,,,,,,,
3993.6,0.00116,183.61,,,,,,,
3993.62,0.00119,186.92,,,,,,,
3993.64,0.00121,190.01,,,,,,,
3993.66,0.00124,192.95,,,,,,,
3993.68,0.00127,195.73,,,,,,,
3993.7,0.00129,198.61,,,,,,,
3993.72,0.00132,201.29,,,,,,,
3993.75,0.00134,203.71,,,,,,,
3993.77,0.00137,206.14,,,,,,,
3993.79,0.0014,206.44,,,,,,,
3993.8,0.00142,206.84,,,,,,,
3993.8,0.00145,205.01,,,,,,,
3993.82,0.00148,206.24,,,,,,,
3993.84,0.00149,207.31,,,,,,,
3993.86,0.0015,207.64,,,,,,,
3993.92,0.00153,208.44,,,,,,,
3993.97,0.00155,210.4,,,,,,,
3994.0,0.00158,212.94,,,,,,,
3994.04,0.0016,215.74,,,,,,,
3994.06,0.00163,211.73,,,,,,,
3994.06,0.00166,211.94,,,,,,,
3994.06,0.00171,212.24,,,,,,,
3994.06,0.00175,212.37,,,,,,,
3994.06,0.00179,212.46,,,,,,,
3994.06,0.00184,212.56,,,,,,,
3994.06,0.00189,212.64,,,,,,,
3994.07,0.00194,212.74,,,,,,,
3994.07,0.00199,212.87,,,,,,,
3994.07,0.00203,212.99,,,,,,,
3994.07,0.00207,213.11,,,,,,,
3994.07,0.0021,213.19,,,,,,,
3994.07,0.00213,213.41,,,,,,,
3994.08,0.0021,213.8,,,,,,,
3994.08,0.00207,213.79,,,,,,,
3994.09,0.0021,213.23,,,,,,,
3994.12,0.00207,205.98,,,,,,,
3994.13,0.00204,201.22,,,,,,,
3994.14,0.00202,196.36,,,,,,,
3994.15,0.00199,191.94,,,,,,,
3994.16,0.00196,187.93,,,,,,,
3994.17,0.00194,183.57,,,,,,,
3994.18,0.00191,180.01,,,,,,,
3994.19,0.00188,176.26,,,,,,,
3994.2,0.00186,172.67,,,,,,,
3994.21,0.00183,169.16,,,,,,,
3994.23,0.00181,165.46,,,,,,,
3994.32,0.00183,170.73,,,,,,,
3994.34,0.00186,174.18,,,,,,,
3994.36,0.00189,177.53,,,,,,,
3994.39,0.00191,180.32,,,,,,,
3994.5,0.00189,171.97,,,,,,,
3994.52,0.00186,167.44,,,,,,,
3994.54,0.00183,163.23,,,,,,,
3994.55,0.00181,159.52,,,,,,,
3994.57,0.00178,155.65,,,,,,,
3994.59,0.00176,151.69,,,,,,,
3994.61,0.00173,147.79,,,,,,,
3994.63,0.00171,143.98,,,,,,,
3994.65,0.00168,140.39,,,,,,,
3994.67,0.00166,136.88,,,,,,,
3994.7,0.00163,133.3,,,,,,,
3994.73,0.0016,129.46,,,,,,,
3994.76,0.00158,125.78,,,,,,,
3994.79,0.00155,121.77,,,,,,,
3994.82,0.00153,117.97,,,,,,,
3994.84,0.00151,114.91,,,,,,,
3994.85,0.0015,114.15,,,,,,,
3994.88,0.00148,110.43,,,,,,,
3994.91,0.00145,106.38,,,,,,,
3994.93,0.00143,102.65,,,,,,,
3994.96,0.0014,98.76,,,,,,,
3994.99,0.00138,94.93,,,,,,,
3995.01,0.00135,91.31,,,,,,,
3995.04,0.00132,87.61,,,,,,,
3995.07,0.0013,83.59,,,,,,,
3995.1,0.00127,79.85,,,,,,,
3995.12,0.00125,75.94,,,,,,,
3995.15,0.00122,72.25,,,,,,,
3995.18,0.0012,68.24,,,,,,,
3995.21,0.00117,64.51,,,,,,,
3995.23,0.00115,60.67,,,,,,,
3995.26,0.00112,56.99,,,,,,,
3995.29,0.0011,53.01,,,,,,,
3995.32,0.00107,49.01,,,,,,,
3995.34,0.00104,45.05,,,,,,,
3995.37,0.00102,41.51,,,,,,,
3995.4,0.00099,37.8,,,,,,,
3995.42,0.00097,34.09,,,,,,,
3995.45,0.00094,30.19,,,,,,,
3995.48,0.00092,26.6,,,,,,,
3995.5,0.00089,22.92,,,,,,,
3995.53,0.00087,18.87,,,,,,,
3995.56,0.00084,15.5,,,,,,,
3995.59,0.00081,11.46,,,,,,,
3995.62,0.00079,7.43,,,,,,,
3995.65,0.00076,3.48,,,,,,,
3995.67,0.00074,-0.18,,,,,,,
3995.7,0.00071,-3.75,,,,,,,
3995.73,0.00069,-7.11,,,,,,,
3995.75,0.00066,-10.7,,,,,,,
3995.78,0.00064,-14.28,,,,,,,
3995.81,0.00061,-17.62,,,,,,,
3995.84,0.00059,-19.44,,,,,,,
3995.86,0.00059,-20.14,,,,,,,
3995.94,0.00056,-22.02,,,,,,,
3995.99,0.00053,-25.28,,,,,,,
3996.02,0.00051,-28.41,,,,,,,
3996.06,0.00048,-31.66,,,,,,,
3996.09,0.00046,-34.9,,,,,,,
3996.11,0.00043,-38.15,,,,,,,
3996.14,0.00041,-41.96,,,,,,,
3996.15,0.00038,-45.48,,,,,,,
3996.17,0.00036,-49.61,,,,,,,
3996.19,0.00033,-53.19,,,,,,,
3996.2,0.0003,-56.57,,,,,,,
3996.21,0.00028,-60.0,,,,,,,
3996.23,0.00025,-63.16,,,,,,,
3996.25,0.00023,-66.36,,,,,,,
3996.27,0.0002,-69.39,,,,,,,
3996.29,0.00018,-72.72,,,,,,,
3996.31,0.00015,-76.15,,,,,,,
3996.33,0.00012,-79.64,,,,,,,
3996.34,0.0001,-83.1,,,,,,,
3996.36,7e-05,-86.5,,,,,,,
3996.38,5e-05,-89.76,,,,,,,
3996.4,2e-05,-93.03,,,,,,,
3996.42,-0.0,-96.26,,,,,,,
3996.44,-3e-05,-99.24,,,,,,,
3996.46,-5e-05,-102.08,,,,,,,
3996.48,-8e-05,-105.13,,,,,,,
3996.5,-0.00011,-107.98,,,,,,,
3996.52,-0.00013,-110.81,,,,,,,
3996.54,-0.00016,-113.41,,,,,,,
3996.57,-0.00018,-116.17,,,,,,,
3996.59,-0.00021,-118.87,,,,,,,
3996.62,-0.00023,-121.37,,,,,,,
3996.65,-0.00026,-124.24,,,,,,,
3996.68,-0.00028,-127.14,,,,,,,
3996.71,-0.00031,-130.08,,,,,,,
3996.74,-0.00033,-133.16,,,,,,,
3996.76,-0.00036,-136.08,,,,,,,
3996.79,-0.00038,-139.14,,,,,,,
3996.82,-0.00041,-142.49,,,,,,,
3996.84,-0.00043,-145.47,,,,,,,
3996.84,-0.00043,-145.55,,,,,,,
3996.87,-0.00046,-148.57,,,,,,,
3996.89,-0.00049,-151.48,,,,,,,
3996.91,-0.00051,-154.03,,,,,,,
3996.93,-0.00054,-156.37,,,,,,,
3996.96,-0.00056,-158.98,,,,,,,
3996.98,-0.00059,-161.48,,,,,,,
3997.01,-0.00061,-163.72,,,,,,,
3997.03,-0.00064,-165.91,,,,,,,
3997.06,-0.00066,-168.54,,,,,,,
3997.09,-0.00069,-171.11,,,,,,,
3997.12,-0.00072,-173.53,,,,,,,
3997.14,-0.00074,-175.82,,,,,,,
3997.17,-0.00077,-178.35,,,,,,,
3997.2,-0.00079,-181.0,,,,,,,
3997.22,-0.00082,-183.54,,,,,,,
3997.25,-0.00084,-185.68,,,,,,,
3997.27,-0.00087,-187.83,,,,,,,
3997.3,-0.00089,-190.22,,,,,,,
3997.33,-0.00092,-189.99,,,,,,,
3997.33,-0.00096,-189.84,,,,,,,
3997.33,-0.00099,-190.0,,,,,,,
3997.33,-0.00104,-190.17,,,,,,,
3997.34,-0.00107,-190.24,,,,,,,
3997.34,-0.00109,-190.33,,,,,,,
3997.34,-0.00114,-190.54,,,,,,,
3997.34,-0.00118,-190.74,,,,,,,
3997.34,-0.0012,-191.11,,,,,,,
3997.41,-0.00118,-184.46,,,,,,,
3997.43,-0.00115,-179.68,,,,,,,
3997.45,-0.00113,-175.41,,,,,,,
3997.47,-0.0011,-171.85,,,,,,,
3997.6,-0.00113,-175.81,,,,,,,
3997.62,-0.00115,-179.5,,,,,,,
3997.64,-0.00118,-182.79,,,,,,,
3997.66,-0.0012,-186.06,,,,,,,
3997.67,-0.00123,-189.16,,,,,,,
3997.69,-0.00125,-192.29,,,,,,,
3997.71,-0.00128,-195.19,,,,,,,
3997.72,-0.0013,-197.69,,,,,,,
3997.74,-0.00133,-200.24,,,,,,,
3997.76,-0.00135,-202.62,,,,,,,
3997.78,-0.00138,-203.09,,,,,,,
3997.79,-0.00141,-203.57,,,,,,,
3997.79,-0.00144,-203.86,,,,,,,
3997.79,-0.00148,-204.11,,,,,,,
3997.8,-0.00151,-204.46,,,,,,,
3997.84,-0.00153,-205.59,,,,,,,
3997.93,-0.00153,-203.3,,,,,,,
3997.99,-0.00156,-204.27,,,,,,,
3998.02,-0.00158,-206.89,,,,,,,
3998.05,-0.00161,-209.38,,,,,,,
3998.07,-0.00163,-212.04,,,,,,,
3998.09,-0.00166,-214.65,,,,,,,
3998.11,-0.00168,-209.45,,,,,,,
3998.11,-0.00172,-209.82,,,,,,,
3998.11,-0.00176,-210.04,,,,,,,
3998.12,-0.00181,-210.21,,,,,,,
3998.12,-0.00184,-210.3,,,,,,,
3998.12,-0.00188,-210.58,,,,,,,
3998.12,-0.00192,-210.92,,,,,,,
3998.15,-0.00194,-211.95,,,,,,,
3998.22,-0.00192,-202.28,,,,,,,
3998.25,-0.00189,-197.84,,,,,,,
3998.5,-0.00187,-184.37,,,,,,,
3998.52,-0.00184,-180.29,,,,,,,
3998.54,-0.00181,-175.95,,,,,,,
3998.56,-0.00179,-171.57,,,,,,,
3998.59,-0.00176,-167.37,,,,,,,
3998.61,-0.00174,-163.39,,,,,,,
3998.63,-0.00171,-159.0,,,,,,,
3998.65,-0.00169,-154.91,,,,,,,
3998.68,-0.00166,-151.02,,,,,,,
3998.7,-0.00164,-146.64,,,,,,,
3998.73,-0.00161,-142.26,,,,,,,
3998.76,-0.00159,-138.3,,,,,,,
3998.79,-0.00156,-134.19,,,,,,,
3998.81,-0.00153,-130.19,,,,,,,
3998.84,-0.00151,-126.2,,,,,,,
3998.84,-0.00151,-125.93,,,,,,,
3998.87,-0.00148,-122.52,,,,,,,
3998.89,-0.00146,-119.31,,,,,,,
3998.91,-0.00143,-115.98,,,,,,,
3998.94,-0.00141,-112.19,,,,,,,
3998.96,-0.00138,-108.72,,,,,,,
3998.99,-0.00136,-105.57,,,,,,,
3999.01,-0.00133,-102.58,,,,,,,
3999.04,-0.00131,-99.31,,,,,,,
3999.07,-0.00128,-95.68,,,,,,,
3999.1,-0.00126,-92.15,,,,,,,
3999.12,-0.00123,-88.78,,,,,,,
3999.16,-0.00121,-84.75,,,,,,,
3999.19,-0.00118,-80.72,,,,,,,
3999.21,-0.00115,-76.94,,,,,,,
3999.24,-0.00113,-73.5,,,,,,,
3999.26,-0.0011,-70.37,,,,,,,
3999.29,-0.00108,-66.82,,,,,,,
3999.31,-0.00105,-63.41,,,,,,,
3999.34,-0.00103,-59.89,,,,,,,
3999.37,-0.001,-56.7,,,,,,,
3999.39,-0.00098,-53.25,,,,,,,
3999.42,-0.00095,-49.89,,,,,,,
3999.45,-0.00093,-46.32,,,,,,,
3999.48,-0.0009,-42.67,,,,,,,
3999.51,-0.00088,-38.62,,,,,,,
3999.54,-0.00085,-34.99,,,,,,,
3999.57,-0.00082,-31.2,,,,,,,
3999.59,-0.0008,-27.32,,,,,,,
3999.62,-0.00077,-23.69,,,,,,,
3999.64,-0.00075,-20.42,,,,,,,
3999.67,-0.00072,-16.96,,,,,,,
3999.7,-0.0007,-13.25,,,,,,,
3999.72,-0.00067,-9.5,,,,,,,
3999.75,-0.00065,-5.6,,,,,,,
3999.78,-0.00062,-1.84,,,,,,,
3999.81,-0.00059,1.86,,,,,,,
3999.84,-0.00057,5.65,,,,,,,
3999.84,-0.00056,6.17,,,,,,,
3999.87,-0.00054,9.25,,,,,,,
3999.89,-0.00052,12.97,,,,,,,
3999.92,-0.00049,16.55,,,,,,,
3999.95,-0.00047,20.47,,,,,,,
3999.97,-0.00044,23.61,,,,,,,
4000.0,-0.00042,26.88,,,,,,,
4000.04,-0.00039,29.81,,,,,,,
4000.1,-0.00037,33.95,,,,,,,
4000.13,-0.00034,37.72,,,,,,,
4000.16,-0.00031,41.43,,,,,,,
4000.17,-0.00029,44.62,,,,,,,
4000.19,-0.00026,48.05,,,,,,,
4000.21,-0.00024,51.26,,,,,,,
4000.23,-0.00021,54.62,,,,,,,
4000.25,-0.00018,57.61,,,,,,,
4000.28,-0.00016,60.33,,,,,,,
7996.7,-0.00014,51.39,,,,,,,
7996.72,-0.00011,54.7,,,,,,,
7996.75,-9e-05,57.48,,,,,,,
7996.78,-6e-05,60.6,,,,,,,
7996.82,-4e-05,63.41,,,,,,,
7996.84,-2e-05,65.58,,,,,,,
7996.85,-1e-05,66.57,,,,,,,
7996.89,1e-05,69.53,,,,,,,
7996.92,4e-05,72.75,,,,,,,
7996.95,6e-05,76.08,,,,,,,
7996.99,9e-05,80.12,,,,,,,
7997.02,0.00012,83.76,,,,,,,
7997.05,0.00014,87.37,,,,,,,
7997.08,0.00017,91.01,,,,,,,
7997.11,0.00019,94.86,,,,,,,
7997.14,0.00022,98.36,,,,,,,
7997.16,0.00024,101.31,,,,,,,
7997.18,0.00027,104.82,,,,,,,
7997.2,0.00029,108.33,,,,,,,
7997.22,0.00032,111.93,,,,,,,
7997.24,0.00034,115.49,,,,,,,
7997.26,0.00037,119.13,,,,,,,
7997.27,0.0004,122.69,,,,,,,
7997.29,0.00042,126.07,,,,,,,
7997.31,0.00045,129.21,,,,,,,
7997.32,0.00047,132.55,,,,,,,
7997.34,0.0005,135.85,,,,,,,
7997.36,0.00052,138.86,,,,,,,
7997.37,0.00055,141.98,,,,,,,
7997.39,0.00058,144.98,,,,,,,
7997.41,0.0006,147.77,,,,,,,
7997.43,0.00063,150.49,,,,,,,
7997.46,0.00065,153.03,,,,,,,
7997.48,0.00068,155.51,,,,,,,
7997.5,0.0007,158.01,,,,,,,
7997.53,0.00073,160.51,,,,,,,
7997.56,0.00075,162.99,,,,,,,
7997.58,0.00078,165.18,,,,,,,
7997.61,0.00081,167.54,,,,,,,
7997.64,0.00083,170.07,,,,,,,
7997.66,0.00086,172.4,,,,,,,
7997.69,0.00088,174.93,,,,,,,
7997.72,0.00091,177.68,,,,,,,
7997.75,0.00093,180.18,,,,,,,
7997.77,0.00096,182.49,,,,,,,
7997.79,0.00098,184.81,,,,,,,
7997.82,0.00101,187.24,,,,,,,
7997.84,0.00103,187.21,,,,,,,
7997.84,0.00104,187.38,,,,,,,
7997.87,0.00106,190.17,,,,,,,
7997.9,0.00108,192.67,,,,,,,
7997.92,0.00111,192.94,,,,,,,
7997.93,0.00115,193.33,,,,,,,
7997.93,0.00118,193.52,,,,,,,
7997.93,0.00121,193.67,,,,,,,
7997.93,0.00124,193.85,,,,,,,
7997.94,0.00127,194.14,,,,,,,
7998.14,0.00129,191.78,,,,,,,
7998.17,0.00132,195.08,,,,,,,
7998.19,0.00134,198.0,,,,,,,
7998.21,0.00137,201.04,,,,,,,
7998.23,0.0014,204.06,,,,,,,
7998.25,0.00142,205.1,,,,,,,
7998.27,0.00145,205.09,,,,,,,
7998.29,0.00147,208.07,,,,,,,
7998.3,0.0015,206.13,,,,,,,
7998.3,0.00153,206.49,,,,,,,
7998.3,0.00156,206.76,,,,,,,
7998.31,0.00159,206.97,,,,,,,
7998.31,0.00162,207.18,,,,,,,
7998.31,0.00165,207.5,,,,,,,
7998.37,0.00168,207.86,,,,,,,
7998.55,0.0017,206.04,,,,,,,
7998.57,0.00173,209.01,,,,,,,
7998.59,0.00175,211.94,,,,,,,
7998.62,0.00178,214.52,,,,,,,
7998.63,0.0018,214.24,,,,,,,
7998.63,0.00183,213.61,,,,,,,
7998.63,0.00187,213.94,,,,,,,
7998.63,0.0019,214.19,,,,,,,
7998.64,0.00194,214.45,,,,,,,
7998.64,0.00197,214.69,,,,,,,
7998.64,0.002,214.95,,,,,,,
7998.64,0.00203,215.25,,,,,,,
7998.75,0.002,205.11,,,,,,,
7998.78,0.00198,200.51,,,,,,,
7998.8,0.00195,196.06,,,,,,,
7998.82,0.00193,192.16,,,,,,,
7998.84,0.0019,188.13,,,,,,,
7998.84,0.0019,187.41,,,,,,,
7998.86,0.00187,183.7,,,,,,,
7998.88,0.00185,179.64,,,,,,,
7998.91,0.00182,175.61,,,,,,,
7998.93,0.0018,172.03,,,,,,,
7998.96,0.00177,167.57,,,,,,,
7998.99,0.00175,163.28,,,,,,,
7999.02,0.00172,159.31,,,,,,,
7999.05,0.0017,154.48,,,,,,,
7999.08,0.00167,150.18,,,,,,,
7999.11,0.00165,146.32,,,,,,,
7999.13,0.00162,142.1,,,,,,,
7999.16,0.00159,138.22,,,,,,,
7999.18,0.00157,134.53,,,,,,,
7999.21,0.00154,130.59,,,,,,,
7999.23,0.00152,127.18,,,,,,,
7999.26,0.00149,123.69,,,,,,,
7999.28,0.00147,120.05,,,,,,,
7999.32,0.00144,115.77,,,,,,,
7999.35,0.00142,111.16,,,,,,,
7999.37,0.00139,107.65,,,,,,,
7999.4,0.00137,104.02,,,,,,,
7999.42,0.00134,100.52,,,,,,,
7999.45,0.00132,97.03,,,,,,,
7999.47,0.00129,93.78,,,,,,,
7999.5,0.00127,90.05,,,,,,,
7999.53,0.00124,86.24,,,,,,,
7999.55,0.00121,82.86,,,,,,,
7999.58,0.00119,79.54,,,,,,,
7999.61,0.00116,76.04,,,,,,,
7999.64,0.00114,72.33,,,,,,,
7999.66,0.00111,68.83,,,,,,,
7999.7,0.00109,64.6,,,,,,,
7999.73,0.00106,60.63,,,,,,,
7999.76,0.00104,56.56,,,,,,,
7999.79,0.00101,52.11,,,,,,,
7999.81,0.00099,48.18,,,,,,,
7999.84,0.00096,44.26,,,,,,,
7999.84,0.00096,43.94,,,,,,,
7999.87,0.00093,39.85,,,,,,,
7999.9,0.00091,35.64,,,,,,,
7999.93,0.00088,31.4,,,,,,,
7999.95,0.00086,27.31,,,,,,,
7999.98,0.00083,22.96,,,,,,,
8000.01,0.00081,18.71,,,,,,,
8000.03,0.00078,14.85,,,,,,,
8000.06,0.00076,11.11,,,,,,,
8000.08,0.00073,7.7,,,,,,,
8000.1,0.00071,4.33,,,,,,,
8000.13,0.00068,0.83,,,,,,,
8000.16,0.00066,-2.69,,,,,,,
8000.18,0.00063,-6.04,,,,,,,
8000.21,0.0006,-9.18,,,,,,,
8000.23,0.00058,-12.4,,,,,,,
8000.26,0.00055,-15.52,,,,,,,
8000.31,0.00053,-18.57,,,,,,,
8000.37,0.0005,-21.07,,,,,,,
8000.46,0.00048,-25.03,,,,,,,
8000.5,0.00045,-28.96,,,,,,,
8000.53,0.00043,-33.01,,,,,,,
8000.56,0.0004,-36.75,,,,,,,
8000.58,0.00038,-40.33,,,,,,,
8000.6,0.00035,-44.19,,,,,,,
8000.62,0.00032,-47.8,,,,,,,
8000.64,0.0003,-52.11,,,,,,,
8000.65,0.00027,-55.56,,,,,,,
8000.66,0.00025,-59.06,,,,,,,
8000.68,0.00022,-62.5,,,,,,,
8000.69,0.00019,-65.77,,,,,,,
8000.71,0.00017,-68.79,,,,,,,
8000.73,0.00014,-72.03,,,,,,,
8000.75,0.00012,-75.17,,,,,,,
8000.77,9e-05,-78.36,,,,,,,
8000.79,7e-05,-82.03,,,,,,,
8000.81,4e-05,-85.47,,,,,,,
8000.83,2e-05,-88.73,,,,,,,
8000.84,-1e-05,-91.26,,,,,,,
8000.85,-1e-05,-91.95,,,,,,,
8000.87,-4e-05,-95.36,,,,,,,
8000.88,-6e-05,-98.56,,,,,,,
8000.9,-9e-05,-102.05,,,,,,,
8000.92,-0.00011,-105.11,,,,,,,
8000.94,-0.00014,-108.12,,,,,,,
8000.96,-0.00016,-111.11,,,,,,,
8000.98,-0.00019,-113.9,,,,,,,
8001.01,-0.00021,-116.74,,,,,,,
8001.03,-0.00024,-119.93,,,,,,,
8001.06,-0.00027,-122.96,,,,,,,
8001.09,-0.00029,-125.72,,,,,,,
8001.11,-0.00032,-128.47,,,,,,,
8001.14,-0.00034,-131.13,,,,,,,
8001.16,-0.00037,-133.52,,,,,,,
8001.18,-0.00039,-135.89,,,,,,,
8001.21,-0.00042,-138.41,,,,,,,
8001.24,-0.00044,-141.19,,,,,,,
8001.27,-0.00047,-143.9,,,,,,,
8001.29,-0.00049,-146.39,,,,,,,
8001.32,-0.00052,-148.68,,,,,,,
8001.34,-0.00055,-151.12,,,,,,,
8001.37,-0.00057,-153.51,,,,,,,
8001.4,-0.0006,-156.18,,,,,,,
8001.43,-0.00062,-159.07,,,,,,,
8001.46,-0.00065,-162.26,,,,,,,
8001.49,-0.00067,-165.4,,,,,,,
8001.51,-0.0007,-168.16,,,,,,,
8001.54,-0.00072,-171.16,,,,,,,
8001.57,-0.00075,-174.3,,,,,,,
8001.59,-0.00077,-177.17,,,,,,,
8001.62,-0.0008,-180.36,,,,,,,
8001.65,-0.00082,-184.05,,,,,,,
8001.68,-0.00085,-187.45,,,,,,,
8001.7,-0.00088,-190.51,,,,,,,
8001.72,-0.0009,-190.82,,,,,,,
8001.73,-0.00093,-191.16,,,,,,,
8001.73,-0.00097,-191.5,,,,,,,
8001.73,-0.00099,-191.71,,,,,,,
8001.73,-0.00102,-191.95,,,,,,,
8001.74,-0.00105,-192.31,,,,,,,
8001.76,-0.00107,-194.1,,,,,,,
8001.84,-0.00109,-191.05,,,,,,,
8001.9,-0.0011,-189.33,,,,,,,
8001.96,-0.00112,-191.47,,,,,,,
8001.99,-0.00115,-194.17,,,,,,,
8002.01,-0.00117,-196.68,,,,,,,
8002.03,-0.0012,-199.04,,,,,,,
8002.05,-0.00122,-201.55,,,,,,,
8002.08,-0.00125,-205.21,,,,,,,
8002.1,-0.00128,-203.63,,,,,,,
8002.11,-0.0013,-204.62,,,,,,,
8002.12,-0.00133,-203.99,,,,,,,
8002.13,-0.00136,-204.47,,,,,,,
8002.13,-0.0014,-204.68,,,,,,,
8002.13,-0.00144,-204.88,,,,,,,
8002.14,-0.00148,-205.05,,,,,,,
8002.14,-0.00151,-205.26,,,,,,,
8002.14,-0.00154,-205.5,,,,,,,
8002.23,-0.00152,-198.45,,,,,,,
8002.26,-0.00149,-193.73,,,,,,,
8002.38,-0.00152,-195.8,,,,,,,
8002.4,-0.00154,-198.93,,,,,,,
8002.43,-0.00157,-202.48,,,,,,,
8002.45,-0.0016,-205.68,,,,,,,
8002.47,-0.00162,-208.44,,,,,,,
8002.48,-0.00165,-211.11,,,,,,,
8002.5,-0.00167,-213.6,,,,,,,
8002.52,-0.0017,-211.67,,,,,,,
8002.52,-0.00173,-212.09,,,,,,,
8002.52,-0.00176,-212.37,,,,,,,
8002.52,-0.00181,-212.56,,,,,,,
8002.52,-0.00184,-212.68,,,,,,,
8002.52,-0.00186,-212.79,,,,,,,
8002.53,-0.00191,-213.04,,,,,,,
8002.53,-0.00194,-213.3,,,,,,,
8002.62,-0.00192,-204.02,,,,,,,
8002.65,-0.00189,-199.07,,,,,,,
8002.84,-0.0019,-195.82,,,,,,,
8002.9,-0.00187,-188.52,,,,,,,
8002.93,-0.00184,-184.0,,,,,,,
8002.95,-0.00181,-179.87,,,,,,,
8002.97,-0.00179,-175.73,,,,,,,
8002.99,-0.00176,-171.97,,,,,,,
8003.01,-0.00174,-167.8,,,,,,,
8003.03,-0.00171,-164.17,,,,,,,
8003.05,-0.00169,-160.18,,,,,,,
8003.08,-0.00166,-155.87,,,,,,,
8003.11,-0.00164,-151.4,,,,,,,
8003.14,-0.00161,-146.86,,,,,,,
8003.17,-0.00159,-142.66,,,,,,,
8003.19,-0.00156,-138.68,,,,,,,
8003.22,-0.00153,-134.8,,,,,,,
8003.25,-0.00151,-130.33,,,,,,,
8003.28,-0.00148,-125.91,,,,,,,
8003.3,-0.00146,-122.2,,,,,,,
8003.33,-0.00143,-118.74,,,,,,,
8003.35,-0.00141,-114.81,,,,,,,
8003.38,-0.00138,-110.92,,,,,,,
8003.41,-0.00136,-106.99,,,,,,,
8003.43,-0.00133,-103.11,,,,,,,
8003.46,-0.00131,-98.95,,,,,,,
8003.49,-0.00128,-95.33,,,,,,,
8003.51,-0.00125,-91.74,,,,,,,
8003.54,-0.00123,-88.3,,,,,,,
8003.57,-0.0012,-84.09,,,,,,,
8003.6,-0.00118,-79.97,,,,,,,
8003.63,-0.00115,-75.85,,,,,,,
8003.65,-0.00113,-71.96,,,,,,,
8003.68,-0.0011,-67.78,,,,,,,
8003.71,-0.00108,-64.52,,,,,,,
8003.73,-0.00105,-60.44,,,,,,,
8003.76,-0.00103,-56.66,,,,,,,
8003.79,-0.001,-53.03,,,,,,,
8003.81,-0.00097,-49.55,,,,,,,
8003.84,-0.00095,-46.22,,,,,,,
8003.84,-0.00094,-45.3,,,,,,,
8003.86,-0.00092,-43.1,,,,,,,
8003.88,-0.0009,-39.9,,,,,,,
8003.91,-0.00087,-37.03,,,,,,,
8003.93,-0.00085,-34.17,,,,,,,
8003.95,-0.00082,-31.39,,,,,,,
8003.98,-0.0008,-28.68,,,,,,,
8004.01,-0.00077,-25.57,,,,,,,
8004.04,-0.00075,-22.4,,,,,,,
8004.07,-0.00072,-19.4,,,,,,,
8004.09,-0.00069,-16.48,,,,,,,
8004.12,-0.00067,-13.04,,,,,,,
8004.15,-0.00064,-9.73,,,,,,,
8004.19,-0.00062,-5.75,,,,,,,
8004.22,-0.00059,-1.79,,,,,,,
8004.25,-0.00057,1.78,,,,,,,
8004.27,-0.00054,5.17,,,,,,,
8004.29,-0.00051,8.39,,,,,,,
8004.32,-0.00049,11.87,,,,,,,
8004.35,-0.00046,15.3,,,,,,,
8004.37,-0.00044,18.84,,,,,,,
8004.4,-0.00041,22.09,,,,,,,
8004.42,-0.00039,24.73,,,,,,,
8004.45,-0.00036,27.05,,,,,,,
8004.5,-0.00034,29.54,,,,,,,
8004.54,-0.00031,32.34,,,,,,,
8004.57,-0.00029,34.93,,,,,,,
8004.6,-0.00026,38.21,,,,,,,
8004.62,-0.00023,41.22,,,,,,,
8004.63,-0.00021,44.7,,,,,,,
8004.65,-0.00018,47.48,,,,,,,
8004.67,-0.00016,50.15,,,,,,,
8004.7,-0.00013,52.69,,,,,,,
16005.52,-0.00016,71.54,,,,,,,
16005.56,-0.00014,75.3,,,,,,,
16005.59,-0.00011,78.89,,,,,,,
16005.62,-9e-05,82.13,,,,,,,
16005.65,-6e-05,85.46,,,,,,,
16005.68,-4e-05,88.59,,,,,,,
16005.7,-1e-05,91.76,,,,,,,
16005.73,2e-05,94.78,,,,,,,
16005.76,4e-05,97.73,,,,,,,
16005.78,7e-05,100.6,,,,,,,
16005.81,9e-05,103.49,,,,,,,
16005.83,0.00012,106.98,,,,,,,
16005.84,0.00013,109.1,,,,,,,
16005.85,0.00014,110.54,,,,,,,
16005.87,0.00017,113.76,,,,,,,
16005.89,0.0002,117.24,,,,,,,
16005.9,0.00022,120.53,,,,,,,
16005.92,0.00025,123.91,,,,,,,
16005.94,0.00027,127.23,,,,,,,
16005.95,0.0003,130.17,,,,,,,
16005.97,0.00032,133.38,,,,,,,
16005.99,0.00035,136.52,,,,,,,
16006.01,0.00037,139.41,,,,,,,
16006.03,0.0004,142.41,,,,,,,
16006.05,0.00042,145.28,,,,,,,
16006.07,0.00045,147.77,,,,,,,
16006.09,0.00047,150.43,,,,,,,
16006.11,0.0005,152.99,,,,,,,
16006.14,0.00053,155.75,,,,,,,
16006.16,0.00055,158.6,,,,,,,
16006.19,0.00058,161.19,,,,,,,
16006.22,0.0006,163.56,,,,,,,
16006.24,0.00063,166.17,,,,,,,
16006.27,0.00065,168.65,,,,,,,
16006.29,0.00068,171.02,,,,,,,
16006.32,0.0007,173.44,,,,,,,
16006.34,0.00073,175.78,,,,,,,
16006.37,0.00076,178.32,,,,,,,
16006.4,0.00078,180.88,,,,,,,
16006.42,0.00081,183.18,,,,,,,
16006.45,0.00083,185.68,,,,,,,
16006.47,0.00086,188.07,,,,,,,
16006.5,0.00088,190.43,,,,,,,
16006.52,0.00091,192.64,,,,,,,
16006.55,0.00093,194.67,,,,,,,
16006.57,0.00096,194.46,,,,,,,
16006.57,0.00099,194.69,,,,,,,
16006.57,0.00102,194.83,,,,,,,
16006.57,0.00104,195.01,,,,,,,
16006.58,0.00107,195.18,,,,,,,
16006.58,0.0011,195.44,,,,,,,
16006.62,0.00112,195.56,,,,,,,
16006.79,0.00115,192.54,,,,,,,
16006.82,0.00117,195.01,,,,,,,
16006.84,0.0012,198.02,,,,,,,
16006.84,0.0012,198.14,,,,,,,
16006.87,0.00122,201.06,,,,,,,
16006.89,0.00125,204.04,,,,,,,
16006.92,0.00128,205.58,,,,,,,
16006.93,0.0013,207.7,,,,,,,
16006.95,0.00133,207.94,,,,,,,
16006.96,0.00135,207.91,,,,,,,
16006.96,0.00139,208.13,,,,,,,
16006.96,0.00143,208.29,,,,,,,
16006.97,0.00146,208.44,,,,,,,
16006.97,0.00149,208.65,,,,,,,
16006.97,0.00152,208.97,,,,,,,
16006.99,0.00155,209.71,,,,,,,
16007.09,0.00153,199.78,,,,,,,
16007.22,0.00155,201.6,,,,,,,
16007.24,0.00158,204.83,,,,,,,
16007.26,0.0016,207.7,,,,,,,
16007.28,0.00163,210.9,,,,,,,
16007.3,0.00165,213.77,,,,,,,
16007.32,0.00168,216.51,,,,,,,
16007.34,0.00171,219.25,,,,,,,
16007.35,0.00174,215.69,,,,,,,
16007.35,0.00177,215.93,,,,,,,
16007.36,0.00179,216.17,,,,,,,
16007.36,0.00182,216.44,,,,,,,
16007.36,0.00185,216.67,,,,,,,
16007.36,0.00188,217.09,,,,,,,
16007.4,0.0019,217.93,,,,,,,
16007.7,0.00188,199.49,,,,,,,
16007.72,0.00185,195.07,,,,,,,
16007.74,0.00183,190.88,,,,,,,
16007.76,0.0018,187.02,,,,,,,
16007.78,0.00177,182.92,,,,,,,
16007.8,0.00175,178.82,,,,,,,
16007.82,0.00172,174.7,,,,,,,
16007.84,0.0017,171.05,,,,,,,
16007.84,0.00169,170.41,,,,,,,
16007.86,0.00167,167.4,,,,,,,
16007.89,0.00165,163.66,,,,,,,
16007.92,0.00162,159.5,,,,,,,
16007.94,0.0016,155.93,,,,,,,
16007.97,0.00157,152.62,,,,,,,
16008.0,0.00154,148.53,,,,,,,
16008.03,0.00152,144.75,,,,,,,
16008.05,0.00149,141.06,,,,,,,
16008.08,0.00147,136.96,,,,,,,
16008.12,0.00144,132.58,,,,,,,
16008.14,0.00142,128.61,,,,,,,
16008.17,0.00139,124.66,,,,,,,
16008.2,0.00137,121.0,,,,,,,
16008.22,0.00134,117.38,,,,,,,
16008.24,0.00132,114.3,,,,,,,
16008.27,0.00129,110.55,,,,,,,
16008.3,0.00126,106.94,,,,,,,
16008.32,0.00124,103.88,,,,,,,
16008.35,0.00121,100.43,,,,,,,
16008.37,0.00119,96.84,,,,,,,
16008.4,0.00116,93.62,,,,,,,
16008.43,0.00114,90.29,,,,,,,
16008.46,0.00111,86.21,,,,,,,
16008.49,0.00109,82.64,,,,,,,
16008.52,0.00106,79.18,,,,,,,
16008.55,0.00104,75.1,,,,,,,
16008.57,0.00101,71.47,,,,,,,
16008.6,0.00098,68.13,,,,,,,
16008.63,0.00096,64.12,,,,,,,
16008.65,0.00093,60.52,,,,,,,
16008.68,0.00091,57.14,,,,,,,
16008.7,0.00088,53.58,,,,,,,
16008.73,0.00086,50.33,,,,,,,
16008.75,0.00083,47.06,,,,,,,
16008.78,0.00081,43.27,,,,,,,
16008.82,0.00078,39.03,,,,,,,
16008.84,0.00076,35.6,,,,,,,
16008.85,0.00075,34.69,,,,,,,
16008.88,0.00073,30.55,,,,,,,
16008.9,0.0007,26.91,,,,,,,
16008.93,0.00068,23.45,,,,,,,
16008.95,0.00065,20.06,,,,,,,
16008.98,0.00063,15.99,,,,,,,
16009.01,0.0006,11.94,,,,,,,
16009.04,0.00058,8.32,,,,,,,
16009.07,0.00055,4.55,,,,,,,
16009.09,0.00053,0.88,,,,,,,
16009.12,0.0005,-2.54,,,,,,,
16009.15,0.00047,-6.24,,,,,,,
16009.17,0.00045,-9.69,,,,,,,
16009.2,0.00042,-13.14,,,,,,,
16009.23,0.0004,-16.46,,,,,,,
16009.27,0.00037,-19.48,,,,,,,
16009.35,0.00035,-22.65,,,,,,,
16009.43,0.00032,-27.05,,,,,,,
16009.46,0.0003,-30.72,,,,,,,
16009.49,0.00027,-34.83,,,,,,,
16009.52,0.00025,-38.64,,,,,,,
16009.55,0.00022,-42.83,,,,,,,
16009.57,0.0002,-47.13,,,,,,,
16009.59,0.00017,-51.54,,,,,,,
16009.6,0.00014,-56.01,,,,,,,
16009.62,0.00012,-59.81,,,,,,,
16009.63,9e-05,-63.33,,,,,,,
16009.65,7e-05,-66.83,,,,,,,
16009.66,4e-05,-69.95,,,,,,,
16009.68,1e-05,-73.3,,,,,,,
16009.7,-1e-05,-76.76,,,,,,,
16009.72,-4e-05,-80.45,,,,,,,
16009.74,-6e-05,-84.09,,,,,,,
16009.76,-9e-05,-87.75,,,,,,,
16009.77,-0.00011,-91.26,,,,,,,
16009.79,-0.00014,-94.82,,,,,,,
16009.81,-0.00016,-98.29,,,,,,,
16009.83,-0.00019,-101.8,,,,,,,
16009.84,-0.00021,-104.56,,,,,,,
16009.85,-0.00022,-105.15,,,,,,,
16009.86,-0.00024,-108.38,,,,,,,
16009.88,-0.00027,-111.63,,,,,,,
16009.9,-0.00029,-114.82,,,,,,,
16009.93,-0.00032,-118.02,,,,,,,
16009.95,-0.00035,-120.98,,,,,,,
16009.97,-0.00037,-123.76,,,,,,,
16009.99,-0.0004,-126.17,,,,,,,
16010.01,-0.00042,-128.7,,,,,,,
16010.04,-0.00045,-131.17,,,,,,,
16010.06,-0.00047,-133.83,,,,,,,
16010.09,-0.0005,-136.4,,,,,,,
16010.12,-0.00052,-139.16,,,,,,,
16010.15,-0.00055,-141.41,,,,,,,
16010.18,-0.00057,-144.24,,,,,,,
16010.21,-0.0006,-147.45,,,,,,,
16010.24,-0.00062,-150.27,,,,,,,
16010.26,-0.00065,-153.06,,,,,,,
16010.29,-0.00068,-156.0,,,,,,,
16010.31,-0.0007,-158.93,,,,,,,
16010.34,-0.00073,-162.19,,,,,,,
16010.37,-0.00075,-165.3,,,,,,,
16010.4,-0.00078,-168.66,,,,,,,
16010.42,-0.0008,-171.74,,,,,,,
16010.45,-0.00083,-174.52,,,,,,,
16010.47,-0.00085,-177.12,,,,,,,
16010.5,-0.00088,-180.1,,,,,,,
16010.52,-0.00091,-182.93,,,,,,,
16010.55,-0.00093,-185.69,,,,,,,
16010.57,-0.00096,-188.48,,,,,,,
16010.6,-0.00098,-191.12,,,,,,,
16010.62,-0.00101,-192.1,,,,,,,
16010.64,-0.00103,-193.89,,,,,,,
16010.67,-0.00106,-196.29,,,,,,,
16010.69,-0.00108,-196.69,,,,,,,
16010.7,-0.00112,-196.89,,,,,,,
16010.7,-0.00114,-197.08,,,,,,,
16010.7,-0.00117,-197.23,,,,,,,
16010.7,-0.0012,-197.38,,,,,,,
16010.7,-0.00122,-197.62,,,,,,,
16010.84,-0.00123,-193.69,,,,,,,
16010.89,-0.00125,-194.22,,,,,,,
16010.93,-0.00127,-197.45,,,,,,,
16010.95,-0.0013,-200.36,,,,,,,
16010.98,-0.00132,-203.53,,,,,,,
16011.0,-0.00135,-206.84,,,,,,,
16011.01,-0.00138,-206.45,,,,,,,
16011.01,-0.00141,-206.85,,,,,,,
16011.02,-0.00144,-207.1,,,,,,,
16011.02,-0.00147,-207.5,,,,,,,
16011.02,-0.0015,-208.21,,,,,,,
16011.05,-0.00152,-210.03,,,,,,,
16011.08,-0.00155,-209.61,,,,,,,
16011.19,-0.00158,-207.82,,,,,,,
16011.24,-0.0016,-209.5,,,,,,,
16011.27,-0.00163,-212.24,,,,,,,
16011.3,-0.00165,-214.87,,,,,,,
16011.32,-0.00168,-216.26,,,,,,,
16011.32,-0.0017,-211.57,,,,,,,
16011.33,-0.00173,-211.65,,,,,,,
16011.33,-0.00177,-211.84,,,,,,,
16011.33,-0.00181,-212.03,,,,,,,
16011.33,-0.00184,-212.22,,,,,,,
16011.33,-0.00187,-212.45,,,,,,,
16011.36,-0.0019,-214.22,,,,,,,
16011.7,-0.00187,-193.18,,,,,,,
16011.73,-0.00185,-188.8,,,,,,,
16011.75,-0.00182,-184.71,,,,,,,
16011.77,-0.0018,-180.31,,,,,,,
16011.79,-0.00177,-176.07,,,,,,,
16011.81,-0.00174,-171.82,,,,,,,
16011.83,-0.00172,-167.55,,,,,,,
16011.84,-0.00171,-165.31,,,,,,,
16011.85,-0.00169,-163.23,,,,,,,
16011.88,-0.00167,-159.13,,,,,,,
16011.9,-0.00164,-155.17,,,,,,,
16011.93,-0.00162,-151.29,,,,,,,
16011.95,-0.00159,-147.56,,,,,,,
16011.98,-0.00157,-144.01,,,,,,,
16012.0,-0.00154,-140.76,,,,,,,
16012.02,-0.00152,-137.48,,,,,,,
16012.05,-0.00149,-133.96,,,,,,,
16012.08,-0.00146,-130.53,,,,,,,
16012.11,-0.00144,-126.83,,,,,,,
16012.14,-0.00141,-123.04,,,,,,,
16012.17,-0.00139,-119.47,,,,,,,
16012.19,-0.00136,-116.06,,,,,,,
16012.22,-0.00134,-112.16,,,,,,,
16012.25,-0.00131,-108.32,,,,,,,
16012.28,-0.00129,-104.71,,,,,,,
16012.3,-0.00126,-101.31,,,,,,,
16012.33,-0.00123,-97.84,,,,,,,
16012.35,-0.00121,-94.57,,,,,,,
16012.38,-0.00118,-91.5,,,,,,,
16012.4,-0.00116,-88.33,,,,,,,
16012.43,-0.00113,-85.12,,,,,,,
16012.45,-0.00111,-82.05,,,,,,,
16012.48,-0.00108,-78.72,,,,,,,
16012.51,-0.00106,-75.25,,,,,,,
16012.54,-0.00103,-71.38,,,,,,,
16012.57,-0.00101,-67.61,,,,,,,
16012.6,-0.00098,-63.73,,,,,,,
16012.63,-0.00095,-60.05,,,,,,,
16012.66,-0.00093,-56.67,,,,,,,
16012.69,-0.0009,-52.62,,,,,,,
16012.71,-0.00088,-48.75,,,,,,,
16012.74,-0.00085,-44.9,,,,,,,
16012.77,-0.00083,-41.01,,,,,,,
16012.79,-0.0008,-37.44,,,,,,,
16012.82,-0.00078,-33.69,,,,,,,
16012.84,-0.00076,-30.53,,,,,,,
16012.85,-0.00075,-30.0,,,,,,,
16012.88,-0.00073,-25.99,,,,,,,
16012.9,-0.0007,-22.21,,,,,,,
16012.93,-0.00067,-18.55,,,,,,,
16012.96,-0.00065,-14.41,,,,,,,
16012.99,-0.00062,-10.45,,,,,,,
16013.02,-0.0006,-6.75,,,,,,,
16013.04,-0.00057,-2.7,,,,,,,
16013.07,-0.00055,1.41,,,,,,,
16013.1,-0.00052,5.55,,,,,,,
16013.13,-0.0005,9.73,,,,,,,
16013.16,-0.00047,13.68,,,,,,,
16013.18,-0.00045,17.29,,,,,,,
16013.21,-0.00042,21.06,,,,,,,
16013.23,-0.0004,24.42,,,,,,,
16013.26,-0.00037,27.67,,,,,,,
16013.3,-0.00034,30.98,,,,,,,
16013.35,-0.00032,34.78,,,,,,,
16013.39,-0.00029,38.51,,,,,,,
16013.41,-0.00027,42.34,,,,,,,
16013.43,-0.00024,45.63,,,,,,,
16013.45,-0.00022,49.42,,,,,,,
16013.47,-0.00019,52.87,,,,,,,
16013.49,-0.00017,56.37,,,,,,,
20410.34,-0.00017,68.35,,,,,,,
20410.38,-0.00015,71.9,,,,,,,
20410.41,-0.00012,75.28,,,,,,,
20410.44,-0.0001,78.6,,,,,,,
20410.47,-7e-05,81.6,,,,,,,
20410.5,-5e-05,84.27,,,,,,,
20410.52,-2e-05,87.25,,,,,,,
20410.56,0.0,90.45,,,,,,,
20410.58,3e-05,93.19,,,,,,,
20410.61,6e-05,95.87,,,,,,,
20410.64,8e-05,99.17,,,,,,,
20410.66,0.00011,102.0,,,,,,,
20410.69,0.00013,105.06,,,,,,,
20410.71,0.00016,108.47,,,,,,,
20410.73,0.00019,112.08,,,,,,,
20410.75,0.00021,115.47,,,,,,,
20410.76,0.00024,118.94,,,,,,,
20410.78,0.00026,122.56,,,,,,,
20410.8,0.00029,125.8,,,,,,,
20410.82,0.00032,129.12,,,,,,,
20410.83,0.00034,132.46,,,,,,,
20410.84,0.00036,134.2,,,,,,,
20410.85,0.00037,135.41,,,,,,,
20410.87,0.00039,138.17,,,,,,,
20410.88,0.00042,141.08,,,,,,,
20410.9,0.00044,143.73,,,,,,,
20410.92,0.00047,146.08,,,,,,,
20410.94,0.00049,148.62,,,,,,,
20410.96,0.00052,151.14,,,,,,,
20410.99,0.00054,153.68,,,,,,,
20411.02,0.00057,156.41,,,,,,,
20411.05,0.00059,159.07,,,,,,,
20411.07,0.00062,161.31,,,,,,,
20411.1,0.00065,163.89,,,,,,,
20411.13,0.00067,166.49,,,,,,,
20411.15,0.0007,169.0,,,,,,,
20411.18,0.00072,171.33,,,,,,,
20411.2,0.00075,173.52,,,,,,,
20411.22,0.00077,175.51,,,,,,,
20411.25,0.0008,177.66,,,,,,,
20411.27,0.00082,179.84,,,,,,,
20411.3,0.00085,181.91,,,,,,,
20411.32,0.00088,183.97,,,,,,,
20411.35,0.0009,185.98,,,,,,,
20411.38,0.00093,187.97,,,,,,,
20411.4,0.00095,189.87,,,,,,,
20411.42,0.00098,191.45,,,,,,,
20411.45,0.001,193.2,,,,,,,
20411.48,0.00103,194.98,,,,,,,
20411.51,0.00105,195.73,,,,,,,
20411.53,0.00108,197.71,,,,,,,
20411.56,0.00111,197.01,,,,,,,
20411.56,0.00114,197.33,,,,,,,
20411.56,0.00116,197.51,,,,,,,
20411.56,0.0012,197.62,,,,,,,
20411.57,0.00123,197.76,,,,,,,
20411.57,0.00126,197.94,,,,,,,
20411.57,0.00128,198.13,,,,,,,
20411.79,0.00131,190.58,,,,,,,
20411.82,0.00134,193.16,,,,,,,
20411.84,0.00136,195.58,,,,,,,
20411.84,0.00136,195.7,,,,,,,
20411.86,0.00139,198.33,,,,,,,
20411.89,0.00141,200.87,,,,,,,
20411.9,0.00144,203.27,,,,,,,
20411.93,0.00146,205.56,,,,,,,
20411.95,0.00149,207.74,,,,,,,
20411.97,0.00152,209.95,,,,,,,
20411.98,0.00154,206.96,,,,,,,
20411.99,0.00157,207.27,,,,,,,
20411.99,0.0016,207.49,,,,,,,
20411.99,0.00163,207.79,,,,,,,
20412.02,0.00166,209.15,,,,,,,
20412.17,0.00168,208.55,,,,,,,
20412.2,0.00171,211.1,,,,,,,
20412.23,0.00173,213.87,,,,,,,
20412.25,0.00176,216.82,,,,,,,
20412.27,0.00179,213.36,,,,,,,
20412.27,0.00182,214.05,,,,,,,
20412.28,0.00185,214.62,,,,,,,
20412.3,0.00187,217.0,,,,,,,
20412.32,0.0019,218.84,,,,,,,
20412.33,0.00192,215.69,,,,,,,
20412.33,0.00196,215.84,,,,,,,
20412.33,0.00201,215.93,,,,,,,
20412.34,0.00204,215.98,,,,,,,
20412.34,0.00207,216.07,,,,,,,
20412.34,0.00211,216.1,,,,,,,
20412.34,0.00214,216.13,,,,,,,
20412.34,0.00217,216.18,,,,,,,
20412.34,0.00219,216.21,,,,,,,
20412.34,0.00223,216.32,,,,,,,
20412.39,0.0022,209.59,,,,,,,
20412.4,0.00218,204.54,,,,,,,
20412.41,0.00215,199.5,,,,,,,
20412.42,0.00212,195.14,,,,,,,
20412.43,0.0021,190.56,,,,,,,
20412.44,0.00207,186.34,,,,,,,
20412.45,0.00204,182.26,,,,,,,
20412.46,0.00202,178.18,,,,,,,
20412.47,0.00199,174.17,,,,,,,
20412.48,0.00196,170.0,,,,,,,
20412.49,0.00194,166.46,,,,,,,
20412.5,0.00191,162.65,,,,,,,
20412.51,0.00188,158.87,,,,,,,
20412.52,0.00186,155.15,,,,,,,
20412.53,0.00183,151.39,,,,,,,
20412.55,0.0018,147.79,,,,,,,
20412.56,0.00178,144.3,,,,,,,
20412.58,0.00175,140.7,,,,,,,
20412.62,0.00173,136.73,,,,,,,
20412.66,0.0017,132.28,,,,,,,
20412.71,0.00168,127.43,,,,,,,
20412.75,0.00165,122.82,,,,,,,
20412.78,0.00163,118.06,,,,,,,
20412.81,0.0016,113.67,,,,,,,
20412.84,0.00158,109.44,,,,,,,
20412.84,0.00157,108.58,,,,,,,
20412.86,0.00155,105.45,,,,,,,
20412.89,0.00152,101.29,,,,,,,
20412.91,0.0015,97.17,,,,,,,
20412.94,0.00147,93.16,,,,,,,
20412.96,0.00145,89.22,,,,,,,
20412.99,0.00142,85.12,,,,,,,
20413.02,0.0014,81.07,,,,,,,
20413.04,0.00137,77.18,,,,,,,
20413.07,0.00135,73.1,,,,,,,
20413.1,0.00132,69.46,,,,,,,
20413.12,0.0013,65.69,,,,,,,
20413.15,0.00127,62.09,,,,,,,
20413.17,0.00125,58.86,,,,,,,
20413.2,0.00122,55.55,,,,,,,
20413.22,0.00119,51.87,,,,,,,
20413.25,0.00117,48.52,,,,,,,
20413.28,0.00114,45.12,,,,,,,
20413.3,0.00112,41.66,,,,,,,
20413.32,0.00109,38.8,,,,,,,
20413.35,0.00107,36.06,,,,,,,
20413.37,0.00104,33.12,,,,,,,
20413.4,0.00102,30.17,,,,,,,
20413.43,0.00099,27.11,,,,,,,
20413.46,0.00097,23.35,,,,,,,
20413.5,0.00094,18.98,,,,,,,
20413.53,0.00092,15.22,,,,,,,
20413.56,0.00089,11.29,,,,,,,
20413.59,0.00086,7.23,,,,,,,
20413.61,0.00084,3.63,,,,,,,
20413.64,0.00081,0.19,,,,,,,
20413.66,0.00079,-3.65,,,,,,,
20413.69,0.00076,-6.98,,,,,,,
20413.71,0.00074,-10.19,,,,,,,
20413.74,0.00071,-13.25,,,,,,,
20413.77,0.00069,-16.1,,,,,,,
20413.8,0.00066,-18.51,,,,,,,
20413.84,0.00064,-19.95,,,,,,,
20413.87,0.00064,-20.52,,,,,,,
20413.95,0.00061,-23.01,,,,,,,
20413.98,0.00059,-25.58,,,,,,,
20414.02,0.00056,-28.69,,,,,,,
20414.05,0.00053,-32.33,,,,,,,
20414.08,0.00051,-35.39,,,,,,,
20414.1,0.00048,-38.89,,,,,,,
20414.12,0.00046,-42.18,,,,,,,
20414.14,0.00043,-45.95,,,,,,,
20414.16,0.00041,-50.03,,,,,,,
20414.17,0.00038,-53.54,,,,,,,
20414.19,0.00035,-56.77,,,,,,,
20414.2,0.00033,-60.02,,,,,,,
20414.22,0.0003,-63.23,,,,,,,
20414.24,0.00028,-66.34,,,,,,,
20414.27,0.00025,-69.52,,,,,,,
20414.29,0.00023,-72.83,,,,,,,
20414.31,0.0002,-76.02,,,,,,,
20414.32,0.00017,-79.32,,,,,,,
20414.34,0.00015,-82.73,,,,,,,
20414.36,0.00012,-86.12,,,,,,,
20414.38,0.0001,-89.37,,,,,,,
20414.4,7e-05,-92.37,,,,,,,
20414.41,5e-05,-95.38,,,,,,,
20414.43,2e-05,-98.33,,,,,,,
20414.46,-1e-05,-101.32,,,,,,,
20414.48,-3e-05,-104.23,,,,,,,
20414.5,-6e-05,-107.04,,,,,,,
20414.52,-8e-05,-109.97,,,,,,,
20414.55,-0.00011,-112.91,,,,,,,
20414.57,-0.00013,-115.6,,,,,,,
20414.6,-0.00016,-118.03,,,,,,,
20414.62,-0.00018,-120.39,,,,,,,
20414.65,-0.00021,-123.07,,,,,,,
20414.67,-0.00023,-125.55,,,,,,,
20414.7,-0.00026,-127.96,,,,,,,
20414.72,-0.00028,-130.41,,,,,,,
20414.75,-0.00031,-132.91,,,,,,,
20414.78,-0.00033,-135.24,,,,,,,
20414.8,-0.00036,-137.56,,,,,,,
20414.82,-0.00039,-139.76,,,,,,,
20414.84,-0.0004,-141.45,,,,,,,
20414.85,-0.00041,-142.2,,,,,,,
20414.88,-0.00044,-144.81,,,,,,,
20414.91,-0.00046,-147.19,,,,,,,
20414.94,-0.00049,-149.87,,,,,,,
20414.97,-0.00051,-153.03,,,,,,,
20415.0,-0.00054,-156.28,,,,,,,
20415.03,-0.00056,-159.39,,,,,,,
20415.06,-0.00059,-162.68,,,,,,,
20415.08,-0.00062,-165.6,,,,,,,
20415.11,-0.00064,-168.46,,,,,,,
20415.13,-0.00067,-171.35,,,,,,,
20415.16,-0.00069,-174.31,,,,,,,
20415.18,-0.00072,-177.07,,,,,,,
20415.21,-0.00074,-179.91,,,,,,,
20415.23,-0.00077,-182.64,,,,,,,
20415.26,-0.00079,-185.37,,,,,,,
20415.29,-0.00082,-188.09,,,,,,,
20415.31,-0.00084,-190.68,,,,,,,
20415.34,-0.00087,-193.19,,,,,,,
20415.36,-0.0009,-195.76,,,,,,,
20415.39,-0.00092,-195.79,,,,,,,
20415.4,-0.00095,-196.69,,,,,,,
20415.42,-0.00097,-198.34,,,,,,,
20415.43,-0.001,-197.82,,,,,,,
20415.43,-0.00103,-197.98,,,,,,,
20415.44,-0.00106,-198.19,,,,,,,
20415.44,-0.00109,-198.41,,,,,,,
20415.45,-0.00111,-198.77,,,,,,,
20415.48,-0.00114,-199.37,,,,,,,
20415.65,-0.00116,-195.64,,,,,,,
20415.68,-0.00119,-198.53,,,,,,,
20415.71,-0.00121,-201.18,,,,,,,
20415.73,-0.00124,-204.02,,,,,,,
20415.75,-0.00126,-206.71,,,,,,,
20415.77,-0.00129,-208.47,,,,,,,
20415.78,-0.00132,-207.68,,,,,,,
20415.79,-0.00135,-208.16,,,,,,,
20415.79,-0.00138,-208.69,,,,,,,
20415.81,-0.00141,-210.82,,,,,,,
20415.84,-0.00143,-212.03,,,,,,,
20415.84,-0.00144,-212.1,,,,,,,
20415.85,-0.00146,-212.2,,,,,,,
20415.89,-0.00148,-212.32,,,,,,,
20415.97,-0.00151,-211.91,,,,,,,
20416.01,-0.00153,-213.78,,,,,,,
20416.05,-0.00156,-216.26,,,,,,,
20416.07,-0.00158,-219.04,,,,,,,
20416.09,-0.00162,-213.31,,,,,,,
20416.09,-0.00166,-213.71,,,,,,,
20416.09,-0.0017,-213.88,,,,,,,
20416.1,-0.00174,-214.1,,,,,,,
20416.1,-0.00177,-214.39,,,,,,,
20416.1,-0.0018,-214.58,,,,,,,
20416.15,-0.00182,-215.92,,,,,,,
20416.35,-0.00185,-211.43,,,,,,,
20416.38,-0.00187,-214.33,,,,,,,
20416.4,-0.0019,-217.01,,,,,,,
20416.43,-0.00192,-218.91,,,,,,,
20416.54,-0.0019,-207.32,,,,,,,
20416.56,-0.00187,-202.65,,,,,,,
20416.57,-0.00185,-198.24,,,,,,,
20416.59,-0.00182,-194.01,,,,,,,
20416.61,-0.0018,-189.9,,,,,,,
20416.63,-0.00177,-185.79,,,,,,,
20416.65,-0.00175,-181.76,,,,,,,
20416.66,-0.00172,-177.84,,,,,,,
20416.68,-0.00169,-173.73,,,,,,,
20416.71,-0.00167,-169.66,,,,,,,
20416.74,-0.00164,-165.21,,,,,,,
20416.76,-0.00162,-161.24,,,,,,,
20416.79,-0.00159,-157.55,,,,,,,
20416.82,-0.00157,-153.61,,,,,,,
20416.84,-0.00154,-149.89,,,,,,,
20416.84,-0.00154,-149.45,,,,,,,
20416.88,-0.00152,-145.4,,,,,,,
20416.9,-0.00149,-141.31,,,,,,,
20416.93,-0.00147,-137.45,,,,,,,
20416.96,-0.00144,-133.8,,,,,,,
20416.98,-0.00142,-130.23,,,,,,,
20417.0,-0.00139,-126.7,,,,,,,
20417.03,-0.00136,-123.36,,,,,,,
20417.06,-0.00134,-119.91,,,,,,,
20417.08,-0.00131,-116.57,,,,,,,
20417.11,-0.00129,-113.03,,,,,,,
20417.13,-0.00126,-109.89,,,,,,,
20417.16,-0.00124,-106.43,,,,,,,
20417.18,-0.00121,-103.04,,,,,,,
20417.21,-0.00119,-99.42,,,,,,,
20417.24,-0.00116,-96.07,,,,,,,
20417.27,-0.00114,-92.37,,,,,,,
20417.3,-0.00111,-88.78,,,,,,,
20417.33,-0.00108,-85.04,,,,,,,
20417.36,-0.00106,-81.06,,,,,,,
20417.39,-0.00103,-77.3,,,,,,,
20417.41,-0.00101,-73.72,,,,,,,
20417.44,-0.00098,-70.04,,,,,,,
20417.47,-0.00096,-66.66,,,,,,,
20417.49,-0.00093,-63.29,,,,,,,
20417.51,-0.00091,-60.0,,,,,,,
20417.54,-0.00088,-56.34,,,,,,,
20417.57,-0.00085,-52.99,,,,,,,
20417.59,-0.00083,-49.52,,,,,,,
20417.62,-0.0008,-45.84,,,,,,,
20417.65,-0.00078,-42.56,,,,,,,
20417.68,-0.00075,-39.06,,,,,,,
20417.71,-0.00073,-35.51,,,,,,,
20417.73,-0.0007,-32.11,,,,,,,
20417.76,-0.00068,-28.47,,,,,,,
20417.79,-0.00065,-24.78,,,,,,,
20417.82,-0.00062,-21.3,,,,,,,
20417.84,-0.0006,-18.06,,,,,,,
20417.84,-0.0006,-17.66,,,,,,,
20417.87,-0.00057,-13.92,,,,,,,
20417.9,-0.00055,-10.36,,,,,,,
20417.93,-0.00052,-6.79,,,,,,,
20417.95,-0.0005,-2.88,,,,,,,
20417.98,-0.00047,0.78,,,,,,,
20418.01,-0.00045,4.37,,,,,,,
20418.04,-0.00042,7.74,,,,,,,
20418.06,-0.0004,11.24,,,,,,,
20418.09,-0.00037,14.56,,,,,,,
20418.11,-0.00034,17.94,,,,,,,
20418.14,-0.00032,21.53,,,,,,,
20418.17,-0.00029,24.91,,,,,,,
20418.21,-0.00027,27.85,,,,,,,
20418.25,-0.00024,30.88,,,,,,,
20418.3,-0.00022,34.41,,,,,,,
20418.33,-0.00019,38.27,,,,,,,
20418.35,-0.00017,41.84,,,,,,,
36822.43,0.00196,194.41,,,,,,,
36822.49,0.00194,188.54,,,,,,,
36822.52,0.00191,183.76,,,,,,,
36822.56,0.00189,179.47,,,,,,,
36822.58,0.00186,175.39,,,,,,,
36822.61,0.00183,171.44,,,,,,,
36822.63,0.00181,168.0,,,,,,,
36822.65,0.00178,164.37,,,,,,,
36822.67,0.00176,160.57,,,,,,,
36822.7,0.00173,156.94,,,,,,,
36822.72,0.00171,153.33,,,,,,,
36822.75,0.00168,149.5,,,,,,,
36822.78,0.00165,145.73,,,,,,,
36822.81,0.00163,141.66,,,,,,,
36822.84,0.0016,137.68,,,,,,,
36822.84,0.0016,137.56,,,,,,,
36822.87,0.00158,133.55,,,,,,,
36822.9,0.00155,129.61,,,,,,,
36822.92,0.00153,125.85,,,,,,,
36822.95,0.0015,122.2,,,,,,,
36822.97,0.00148,118.8,,,,,,,
36823.0,0.00145,115.41,,,,,,,
36823.02,0.00143,112.01,,,,,,,
36823.05,0.0014,108.68,,,,,,,
36823.07,0.00137,105.46,,,,,,,
36823.09,0.00135,102.67,,,,,,,
36823.12,0.00132,100.15,,,,,,,
36823.14,0.0013,97.42,,,,,,,
36823.16,0.00127,94.93,,,,,,,
36823.19,0.00125,91.82,,,,,,,
36823.23,0.00122,88.66,,,,,,,
36823.26,0.0012,85.33,,,,,,,
36823.29,0.00117,81.93,,,,,,,
36823.32,0.00115,78.67,,,,,,,
36823.35,0.00112,75.17,,,,,,,
36823.38,0.00109,71.57,,,,,,,
36823.4,0.00107,68.3,,,,,,,
36823.43,0.00104,65.19,,,,,,,
36823.45,0.00102,61.98,,,,,,,
36823.48,0.00099,58.56,,,,,,,
36823.51,0.00097,55.06,,,,,,,
36823.54,0.00094,51.63,,,,,,,
36823.56,0.00092,48.31,,,,,,,
36823.59,0.00089,44.97,,,,,,,
36823.62,0.00087,41.55,,,,,,,
36823.64,0.00084,39.0,,,,,,,
36823.66,0.00081,36.07,,,,,,,
36823.69,0.00079,33.05,,,,,,,
36823.72,0.00076,29.88,,,,,,,
36823.74,0.00074,27.13,,,,,,,
36823.77,0.00071,24.17,,,,,,,
36823.79,0.00069,21.47,,,,,,,
36823.82,0.00066,18.74,,,,,,,
36823.84,0.00064,16.12,,,,,,,
36823.87,0.00061,13.49,,,,,,,
36823.89,0.00058,10.92,,,,,,,
36823.92,0.00056,8.36,,,,,,,
36823.95,0.00053,5.65,,,,,,,
36823.98,0.00051,2.99,,,,,,,
36824.01,0.00048,0.05,,,,,,,
36824.04,0.00046,-2.9,,,,,,,
36824.07,0.00043,-6.13,,,,,,,
36824.09,0.00041,-8.98,,,,,,,
36824.13,0.00038,-12.0,,,,,,,
36824.16,0.00035,-15.0,,,,,,,
36824.22,0.00033,-18.07,,,,,,,
36824.3,0.0003,-20.92,,,,,,,
36824.34,0.00028,-23.79,,,,,,,
36824.37,0.00025,-27.04,,,,,,,
36824.4,0.00023,-29.97,,,,,,,
36824.43,0.0002,-33.06,,,,,,,
36824.45,0.00018,-35.87,,,,,,,
36824.48,0.00015,-39.13,,,,,,,
36824.5,0.00013,-42.34,,,,,,,
36824.52,0.0001,-45.8,,,,,,,
36824.54,7e-05,-49.89,,,,,,,
36824.55,5e-05,-53.14,,,,,,,
36824.56,2e-05,-56.41,,,,,,,
36824.58,-0.0,-59.79,,,,,,,
36824.6,-3e-05,-63.17,,,,,,,
36824.63,-6e-05,-66.73,,,,,,,
36824.65,-8e-05,-70.75,,,,,,,
36824.67,-0.00011,-74.49,,,,,,,
36824.69,-0.00013,-78.2,,,,,,,
36824.71,-0.00016,-81.81,,,,,,,
36824.73,-0.00018,-85.11,,,,,,,
36824.74,-0.00021,-88.48,,,,,,,
36824.76,-0.00024,-91.68,,,,,,,
36824.78,-0.00026,-95.08,,,,,,,
36824.8,-0.00029,-98.4,,,,,,,
36824.82,-0.00031,-101.53,,,,,,,
36824.84,-0.00034,-104.83,,,,,,,
36824.84,-0.00034,-104.98,,,,,,,
36824.86,-0.00037,-107.86,,,,,,,
36824.88,-0.00039,-110.75,,,,,,,
36824.91,-0.00042,-113.57,,,,,,,
36824.93,-0.00044,-116.5,,,,,,,
36824.95,-0.00047,-119.22,,,,,,,
36824.98,-0.00049,-121.89,,,,,,,
36825.01,-0.00052,-124.31,,,,,,,
36825.03,-0.00054,-126.73,,,,,,,
36825.06,-0.00057,-129.13,,,,,,,
36825.08,-0.0006,-131.39,,,,,,,
36825.1,-0.00062,-133.54,,,,,,,
36825.13,-0.00065,-135.52,,,,,,,
36825.15,-0.00067,-137.76,,,,,,,
36825.18,-0.0007,-140.09,,,,,,,
36825.21,-0.00072,-142.07,,,,,,,
36825.24,-0.00075,-144.47,,,,,,,
36825.27,-0.00077,-146.99,,,,,,,
36825.3,-0.0008,-149.26,,,,,,,
36825.32,-0.00083,-151.79,,,,,,,
36825.34,-0.00085,-153.76,,,,,,,
36825.37,-0.00088,-156.04,,,,,,,
36825.39,-0.0009,-158.16,,,,,,,
36825.42,-0.00093,-160.35,,,,,,,
36825.44,-0.00095,-162.56,,,,,,,
36825.47,-0.00098,-164.78,,,,,,,
36825.49,-0.00101,-166.36,,,,,,,
36825.52,-0.00103,-168.38,,,,,,,
36825.55,-0.00106,-170.48,,,,,,,
36825.57,-0.00108,-172.82,,,,,,,
36825.6,-0.00111,-175.11,,,,,,,
36825.63,-0.00113,-176.88,,,,,,,
36825.65,-0.00116,-178.26,,,,,,,
36825.66,-0.00118,-179.98,,,,,,,
36825.69,-0.00121,-181.71,,,,,,,
36825.72,-0.00124,-183.62,,,,,,,
36825.75,-0.00126,-185.02,,,,,,,
36825.75,-0.00129,-185.38,,,,,,,
36825.77,-0.00132,-186.63,,,,,,,
36825.81,-0.00134,-187.92,,,,,,,
36825.84,-0.00136,-188.93,,,,,,,
36825.85,-0.00137,-189.14,,,,,,,
36825.89,-0.00139,-191.0,,,,,,,
36825.92,-0.00142,-192.84,,,,,,,
36825.94,-0.00145,-193.38,,,,,,,
36825.95,-0.00147,-193.65,,,,,,,
36825.95,-0.0015,-193.83,,,,,,,
36825.95,-0.00153,-194.11,,,,,,,
36825.97,-0.00155,-195.19,,,,,,,
36826.02,-0.00158,-195.58,,,,,,,
36826.1,-0.0016,-195.16,,,,,,,
36826.14,-0.00163,-197.0,,,,,,,
36826.17,-0.00165,-199.17,,,,,,,
36826.2,-0.00168,-201.58,,,,,,,
36826.22,-0.0017,-202.98,,,,,,,
36826.22,-0.00173,-202.05,,,,,,,
36826.23,-0.00176,-202.37,,,,,,,
36826.23,-0.00179,-202.53,,,,,,,
36826.23,-0.00182,-202.75,,,,,,,
36826.24,-0.00185,-203.06,,,,,,,
36826.25,-0.00188,-203.41,,,,,,,
36826.42,-0.0019,-198.84,,,,,,,
36826.49,-0.00193,-199.32,,,,,,,
36826.57,-0.0019,-189.68,,,,,,,
36826.6,-0.00188,-184.66,,,,,,,
36826.62,-0.00185,-180.05,,,,,,,
36826.64,-0.00182,-175.69,,,,,,,
36826.66,-0.0018,-171.26,,,,,,,
36826.68,-0.00177,-167.2,,,,,,,
36826.7,-0.00175,-162.97,,,,,,,
36826.72,-0.00172,-158.68,,,,,,,
36826.74,-0.00169,-154.84,,,,,,,
36826.76,-0.00167,-151.16,,,,,,,
36826.79,-0.00164,-147.19,,,,,,,
36826.81,-0.00162,-143.74,,,,,,,
36826.84,-0.00159,-140.12,,,,,,,
36826.84,-0.00159,-139.22,,,,,,,
36826.87,-0.00157,-135.8,,,,,,,
36826.9,-0.00154,-131.45,,,,,,,
36826.93,-0.00152,-127.51,,,,,,,
36826.96,-0.00149,-123.36,,,,,,,
36826.99,-0.00147,-119.11,,,,,,,
36827.02,-0.00144,-114.96,,,,,,,
36827.04,-0.00142,-111.21,,,,,,,
36827.07,-0.00139,-107.38,,,,,,,
36827.09,-0.00137,-103.56,,,,,,,
36827.12,-0.00134,-99.83,,,,,,,
36827.15,-0.00132,-95.99,,,,,,,
36827.17,-0.00129,-92.22,,,,,,,
36827.2,-0.00126,-88.67,,,,,,,
36827.22,-0.00124,-85.06,,,,,,,
36827.25,-0.00121,-81.48,,,,,,,
36827.27,-0.00119,-77.99,,,,,,,
36827.31,-0.00116,-74.32,,,,,,,
36827.33,-0.00114,-70.82,,,,,,,
36827.35,-0.00111,-67.51,,,,,,,
36827.38,-0.00109,-64.02,,,,,,,
36827.41,-0.00106,-60.38,,,,,,,
36827.44,-0.00104,-56.63,,,,,,,
36827.47,-0.00101,-53.23,,,,,,,
36827.49,-0.00098,-49.71,,,,,,,
36827.52,-0.00096,-46.1,,,,,,,
36827.55,-0.00093,-42.4,,,,,,,
36827.58,-0.00091,-38.61,,,,,,,
36827.6,-0.00088,-34.98,,,,,,,
36827.63,-0.00086,-31.82,,,,,,,
36827.66,-0.00083,-28.36,,,,,,,
36827.68,-0.00081,-24.9,,,,,,,
36827.71,-0.00078,-21.34,,,,,,,
36827.74,-0.00076,-17.84,,,,,,,
36827.77,-0.00073,-14.01,,,,,,,
36827.79,-0.0007,-10.48,,,,,,,
36827.82,-0.00068,-7.16,,,,,,,
36827.84,-0.00066,-3.9,,,,,,,
36827.84,-0.00065,-3.61,,,,,,,
36827.87,-0.00063,-0.2,,,,,,,
36827.89,-0.0006,2.7,,,,,,,
36827.91,-0.00058,5.63,,,,,,,
36827.94,-0.00055,8.58,,,,,,,
36827.97,-0.00053,11.41,,,,,,,
36827.99,-0.0005,14.32,,,,,,,
36828.02,-0.00047,17.14,,,,,,,
36828.05,-0.00045,20.27,,,,,,,
36828.07,-0.00042,23.13,,,,,,,
36828.11,-0.0004,25.63,,,,,,,
36828.15,-0.00037,27.83,,,,,,,
36828.2,-0.00035,31.2,,,,,,,
36828.24,-0.00032,34.64,,,,,,,
36828.27,-0.0003,38.4,,,,,,,
36828.28,-0.00027,42.11,,,,,,,
36828.3,-0.00024,45.49,,,,,,,
36828.32,-0.00022,48.41,,,,,,,
36828.34,-0.00019,51.39,,,,,,,
36828.37,-0.00017,54.31,,,,,,,
36828.4,-0.00014,57.22,,,,,,,
36828.43,-0.00012,60.0,,,,,,,
36828.47,-9e-05,63.05,,,,,,,
36828.51,-7e-05,66.09,,,,,,,
36828.54,-4e-05,68.96,,,,,,,
36828.57,-1e-05,72.08,,,,,,,
36828.6,1e-05,75.19,,,,,,,
36828.63,4e-05,78.18,,,,,,,
36828.66,6e-05,81.2,,,,,,,
36828.68,9e-05,84.1,,,,,,,
36828.71,0.00011,87.06,,,,,,,
36828.74,0.00014,90.05,,,,,,,
36828.77,0.00016,93.02,,,,,,,
36828.8,0.00019,96.02,,,,,,,
36828.82,0.00022,99.37,,,,,,,
36828.84,0.00024,102.36,,,,,,,
36828.84,0.00024,102.85,,,,,,,
36828.86,0.00027,106.21,,,,,,,
36828.88,0.00029,109.64,,,,,,,
36828.9,0.00032,112.96,,,,,,,
36828.91,0.00035,116.13,,,,,,,
36828.93,0.00037,118.92,,,,,,,
36828.95,0.0004,121.95,,,,,,,
36828.96,0.00042,124.9,,,,,,,
36828.98,0.00045,127.83,,,,,,,
36829.0,0.00047,130.54,,,,,,,
36829.01,0.0005,133.0,,,,,,,
36829.03,0.00053,135.51,,,,,,,
36829.06,0.00055,138.16,,,,,,,
36829.08,0.00058,140.56,,,,,,,
36829.1,0.0006,142.8,,,,,,,
36829.13,0.00063,144.92,,,,,,,
36829.15,0.00065,146.91,,,,,,,
36829.18,0.00068,148.93,,,,,,,
36829.2,0.0007,151.0,,,,,,,
36829.23,0.00073,152.99,,,,,,,
36829.26,0.00076,155.11,,,,,,,
36829.28,0.00078,157.08,,,,,,,
36829.31,0.00081,159.45,,,,,,,
36829.34,0.00083,161.32,,,,,,,
36829.36,0.00086,163.5,,,,,,,
36829.39,0.00088,165.78,,,,,,,
36829.42,0.00091,167.93,,,,,,,
36829.44,0.00093,170.02,,,,,,,
36829.46,0.00096,171.76,,,,,,,
36829.48,0.00099,173.35,,,,,,,
36829.51,0.00101,175.36,,,,,,,
36829.54,0.00104,177.36,,,,,,,
36829.55,0.00106,178.24,,,,,,,
36829.58,0.00109,180.49,,,,,,,
36829.62,0.00111,182.73,,,,,,,
36829.65,0.00114,184.13,,,,,,,
36829.66,0.00116,184.5,,,,,,,
36829.66,0.00119,185.16,,,,,,,
36829.69,0.00122,186.49,,,,,,,
36829.72,0.00124,187.96,,,,,,,
36829.76,0.00127,189.63,,,,,,,
36829.8,0.00129,190.88,,,,,,,
36829.81,0.00132,191.37,,,,,,,
36829.82,0.00135,191.71,,,,,,,
36829.83,0.00137,192.38,,,,,,,
36829.84,0.00138,192.76,,,,,,,
36829.86,0.0014,193.39,,,,,,,
36829.91,0.00142,194.44,,,,,,,
36829.96,0.00145,195.98,,,,,,,
36830.0,0.00147,198.1,,,,,,,
36830.02,0.0015,197.24,,,,,,,
36830.02,0.00154,197.55,,,,,,,
36830.02,0.00156,197.74,,,,,,,
36830.02,0.00159,197.87,,,,,,,
36830.02,0.00162,198.12,,,,,,,
36830.05,0.00165,199.32,,,,,,,
36830.2,0.00168,195.54,,,,,,,
36830.24,0.0017,197.91,,,,,,,
36830.27,0.00173,200.97,,,,,,,
36830.3,0.00175,203.87,,,,,,,
36830.32,0.00178,203.6,,,,,,,
36830.32,0.00181,204.23,,,,,,,
36830.32,0.00184,204.53,,,,,,,
36830.33,0.00189,204.78,,,,,,,
36830.33,0.00192,204.88,,,,,,,
36830.33,0.00194,205.02,,,,,,,
36830.33,0.00197,205.15,,,,,,,
36830.33,0.00201,205.41,,,,,,,
36830.33,0.00204,205.64,,,,,,,
40031.94,-0.00012,35.29,,,,,,,
40031.96,-9e-05,37.7,,,,,,,
40031.97,-6e-05,40.3,,,,,,,
40031.99,-4e-05,42.52,,,,,,,
40032.01,-1e-05,44.58,,,,,,,
40032.03,1e-05,46.4,,,,,,,
40032.06,4e-05,48.18,,,,,,,
40032.1,6e-05,50.02,,,,,,,
40032.14,9e-05,52.01,,,,,,,
40032.18,0.00011,54.34,,,,,,,
40032.22,0.00014,57.26,,,,,,,
40032.25,0.00016,59.75,,,,,,,
40032.27,0.00019,62.18,,,,,,,
40032.3,0.00021,64.45,,,,,,,
40032.32,0.00024,66.81,,,,,,,
40032.34,0.00027,69.01,,,,,,,
40032.37,0.00029,71.17,,,,,,,
40032.4,0.00032,73.43,,,,,,,
40032.43,0.00034,75.67,,,,,,,
40032.46,0.00037,77.74,,,,,,,
40032.49,0.00039,79.93,,,,,,,
40032.52,0.00042,82.16,,,,,,,
40032.54,0.00044,84.42,,,,,,,
40032.57,0.00047,86.78,,,,,,,
40032.59,0.0005,89.35,,,,,,,
40032.61,0.00052,91.67,,,,,,,
40032.62,0.00055,93.9,,,,,,,
40032.63,0.00057,96.01,,,,,,,
40032.65,0.0006,98.16,,,,,,,
40032.66,0.00062,100.35,,,,,,,
40032.68,0.00065,102.54,,,,,,,
40032.7,0.00068,104.55,,,,,,,
40032.72,0.0007,106.46,,,,,,,
40032.73,0.00073,108.1,,,,,,,
40032.75,0.00075,110.05,,,,,,,
40032.78,0.00078,111.72,,,,,,,
40032.8,0.0008,113.25,,,,,,,
40032.83,0.00083,114.82,,,,,,,
40032.84,0.00084,115.65,,,,,,,
40032.86,0.00086,116.4,,,,,,,
40032.88,0.00088,117.7,,,,,,,
40032.9,0.00091,119.03,,,,,,,
40032.93,0.00093,120.47,,,,,,,
40032.95,0.00096,122.03,,,,,,,
40032.98,0.00098,123.23,,,,,,,
40033.0,0.00101,124.5,,,,,,,
40033.03,0.00104,126.1,,,,,,,
40033.06,0.00106,127.71,,,,,,,
40033.09,0.00109,129.53,,,,,,,
40033.13,0.00111,131.06,,,,,,,
40033.13,0.00114,131.88,,,,,,,
40033.16,0.00116,133.42,,,,,,,
40033.18,0.00119,134.84,,,,,,,
40033.2,0.00122,135.95,,,,,,,
40033.23,0.00124,137.08,,,,,,,
40033.26,0.00127,138.32,,,,,,,
40033.29,0.00129,139.33,,,,,,,
40033.31,0.00132,140.49,,,,,,,
40033.33,0.00134,141.43,,,,,,,
40033.36,0.00137,142.88,,,,,,,
40033.38,0.00139,143.68,,,,,,,
40033.41,0.00142,145.08,,,,,,,
40033.44,0.00144,146.0,,,,,,,
40033.46,0.00147,146.86,,,,,,,
40033.47,0.0015,147.55,,,,,,,
40033.51,0.00152,148.57,,,,,,,
40033.54,0.00155,149.73,,,,,,,
40033.56,0.00157,150.23,,,,,,,
40033.58,0.0016,150.77,,,,,,,
40033.62,0.00162,151.78,,,,,,,
40033.66,0.00165,153.19,,,,,,,
40033.68,0.00168,153.83,,,,,,,
40033.69,0.0017,154.43,,,,,,,
40033.7,0.00173,155.03,,,,,,,
40033.72,0.00176,155.51,,,,,,,
40033.75,0.00178,156.09,,,,,,,
40033.79,0.00181,156.45,,,,,,,
40033.84,0.00183,157.47,,,,,,,
40033.85,0.00183,157.82,,,,,,,
40033.89,0.00186,159.73,,,,,,,
40033.91,0.00189,160.28,,,,,,,
40033.91,0.00191,160.54,,,,,,,
40033.91,0.00194,160.73,,,,,,,
40033.92,0.00197,161.2,,,,,,,
40033.93,0.00199,161.74,,,,,,,
40033.94,0.00202,162.19,,,,,,,
40033.96,0.00204,162.17,,,,,,,
40034.02,0.00202,154.46,,,,,,,
40034.04,0.00199,150.76,,,,,,,
40034.06,0.00196,147.28,,,,,,,
40034.07,0.00194,143.91,,,,,,,
40034.08,0.00191,140.58,,,,,,,
40034.09,0.00189,137.43,,,,,,,
40034.11,0.00186,134.36,,,,,,,
40034.12,0.00184,131.19,,,,,,,
40034.14,0.00181,128.27,,,,,,,
40034.16,0.00179,125.17,,,,,,,
40034.18,0.00176,122.06,,,,,,,
40034.2,0.00173,118.97,,,,,,,
40034.24,0.00171,115.59,,,,,,,
40034.27,0.00168,111.93,,,,,,,
40034.31,0.00166,108.17,,,,,,,
40034.34,0.00163,104.8,,,,,,,
40034.37,0.00161,101.44,,,,,,,
40034.4,0.00158,98.2,,,,,,,
40034.42,0.00156,95.2,,,,,,,
40034.44,0.00153,92.17,,,,,,,
40034.47,0.0015,89.15,,,,,,,
40034.49,0.00148,86.19,,,,,,,
40034.52,0.00145,83.29,,,,,,,
40034.54,0.00143,80.1,,,,,,,
40034.57,0.0014,77.14,,,,,,,
40034.6,0.00138,73.95,,,,,,,
40034.63,0.00135,71.13,,,,,,,
40034.65,0.00133,68.24,,,,,,,
40034.68,0.0013,65.3,,,,,,,
40034.71,0.00128,62.2,,,,,,,
40034.74,0.00125,59.27,,,,,,,
40034.76,0.00123,56.39,,,,,,,
40034.79,0.0012,53.66,,,,,,,
40034.81,0.00117,50.92,,,,,,,
40034.84,0.00115,48.23,,,,,,,
40034.84,0.00114,47.37,,,,,,,
40034.86,0.00112,45.66,,,,,,,
40034.88,0.0011,43.16,,,,,,,
40034.91,0.00107,40.65,,,,,,,
40034.94,0.00105,37.97,,,,,,,
40034.97,0.00102,35.39,,,,,,,
40035.0,0.001,32.57,,,,,,,
40035.03,0.00097,29.63,,,,,,,
40035.06,0.00094,26.55,,,,,,,
40035.08,0.00092,23.87,,,,,,,
40035.11,0.00089,21.2,,,,,,,
40035.13,0.00087,18.47,,,,,,,
40035.16,0.00084,15.9,,,,,,,
40035.18,0.00082,13.22,,,,,,,
40035.21,0.00079,10.56,,,,,,,
40035.24,0.00077,7.95,,,,,,,
40035.26,0.00074,5.48,,,,,,,
40035.29,0.00072,3.16,,,,,,,
40035.31,0.00069,0.56,,,,,,,
40035.34,0.00066,-1.8,,,,,,,
40035.37,0.00064,-4.55,,,,,,,
40035.4,0.00061,-7.14,,,,,,,
40035.42,0.00059,-9.49,,,,,,,
40035.45,0.00056,-11.77,,,,,,,
40035.5,0.00054,-13.81,,,,,,,
40035.57,0.00051,-15.37,,,,,,,
40035.63,0.00049,-17.78,,,,,,,
40035.66,0.00046,-20.27,,,,,,,
40035.69,0.00044,-22.58,,,,,,,
40035.72,0.00041,-24.87,,,,,,,
40035.75,0.00038,-27.56,,,,,,,
40035.77,0.00036,-29.86,,,,,,,
40035.79,0.00033,-32.18,,,,,,,
40035.81,0.00031,-34.45,,,,,,,
40035.83,0.00028,-36.85,,,,,,,
40035.84,0.00026,-38.49,,,,,,,
40035.85,0.00026,-39.22,,,,,,,
40035.87,0.00023,-41.67,,,,,,,
40035.89,0.0002,-44.52,,,,,,,
40035.9,0.00018,-46.78,,,,,,,
40035.92,0.00015,-49.25,,,,,,,
40035.94,0.00013,-51.49,,,,,,,
40035.95,0.0001,-53.59,,,,,,,
40035.98,7e-05,-55.56,,,,,,,
40036.0,5e-05,-57.86,,,,,,,
40036.02,2e-05,-60.15,,,,,,,
40036.04,-0.0,-62.51,,,,,,,
40036.06,-3e-05,-64.72,,,,,,,
40036.07,-5e-05,-66.97,,,,,,,
40036.09,-8e-05,-69.19,,,,,,,
40036.11,-0.0001,-71.46,,,,,,,
40036.13,-0.00013,-73.65,,,,,,,
40036.16,-0.00016,-75.85,,,,,,,
40036.18,-0.00018,-78.03,,,,,,,
40036.2,-0.00021,-80.21,,,,,,,
40036.23,-0.00023,-82.52,,,,,,,
40036.26,-0.00026,-84.79,,,,,,,
40036.29,-0.00028,-86.96,,,,,,,
40036.31,-0.00031,-88.95,,,,,,,
40036.34,-0.00033,-91.11,,,,,,,
40036.36,-0.00036,-93.02,,,,,,,
40036.38,-0.00039,-95.17,,,,,,,
40036.41,-0.00041,-97.16,,,,,,,
40036.44,-0.00044,-99.33,,,,,,,
40036.47,-0.00046,-101.48,,,,,,,
40036.49,-0.00049,-103.15,,,,,,,
40036.52,-0.00051,-105.18,,,,,,,
40036.54,-0.00054,-106.84,,,,,,,
40036.56,-0.00056,-108.55,,,,,,,
40036.59,-0.00059,-110.31,,,,,,,
40036.61,-0.00062,-111.59,,,,,,,
40036.63,-0.00064,-113.4,,,,,,,
40036.66,-0.00067,-114.69,,,,,,,
40036.69,-0.00069,-116.6,,,,,,,
40036.72,-0.00072,-118.34,,,,,,,
40036.75,-0.00074,-119.95,,,,,,,
40036.76,-0.00077,-121.07,,,,,,,
40036.79,-0.00079,-122.55,,,,,,,
40036.81,-0.00082,-123.51,,,,,,,
40036.83,-0.00084,-124.95,,,,,,,
40036.84,-0.00085,-125.52,,,,,,,
40036.87,-0.00087,-126.59,,,,,,,
40036.9,-0.0009,-128.07,,,,,,,
40036.92,-0.00092,-129.45,,,,,,,
40036.93,-0.00095,-130.08,,,,,,,
40036.96,-0.00097,-131.4,,,,,,,
40036.99,-0.001,-132.65,,,,,,,
40037.02,-0.00102,-133.94,,,,,,,
40037.05,-0.00105,-135.34,,,,,,,
40037.08,-0.00107,-136.57,,,,,,,
40037.09,-0.0011,-137.01,,,,,,,
40037.12,-0.00113,-138.57,,,,,,,
40037.16,-0.00115,-140.39,,,,,,,
40037.18,-0.00118,-141.24,,,,,,,
40037.21,-0.0012,-142.85,,,,,,,
40037.24,-0.00123,-144.45,,,,,,,
40037.25,-0.00125,-145.07,,,,,,,
40037.27,-0.00128,-146.42,,,,,,,
40037.31,-0.00131,-147.86,,,,,,,
40037.33,-0.00133,-149.31,,,,,,,
40037.36,-0.00136,-150.57,,,,,,,
40037.39,-0.00138,-152.12,,,,,,,
40037.41,-0.00141,-153.53,,,,,,,
40037.45,-0.00143,-155.44,,,,,,,
40037.48,-0.00146,-157.5,,,,,,,
40037.5,-0.00148,-158.97,,,,,,,
40037.53,-0.00151,-161.51,,,,,,,
40037.56,-0.00154,-163.55,,,,,,,
40037.57,-0.00156,-164.74,,,,,,,
40037.6,-0.00159,-166.7,,,,,,,
40037.63,-0.00161,-168.93,,,,,,,
40037.66,-0.00164,-171.38,,,,,,,
40037.69,-0.00167,-173.32,,,,,,,
40037.71,-0.00169,-174.82,,,,,,,
40037.74,-0.00172,-176.9,,,,,,,
40037.76,-0.00174,-179.0,,,,,,,
40037.79,-0.00177,-180.99,,,,,,,
40037.81,-0.00179,-182.49,,,,,,,
40037.84,-0.00182,-184.2,,,,,,,
40037.84,-0.00183,-184.76,,,,,,,
40037.86,-0.00185,-185.95,,,,,,,
40037.88,-0.00187,-187.33,,,,,,,
40037.91,-0.0019,-188.97,,,,,,,
40037.94,-0.00192,-190.56,,,,,,,
40037.97,-0.00195,-192.1,,,,,,,
40038.09,-0.00192,-182.34,,,,,,,
40038.11,-0.00189,-177.71,,,,,,,
40038.13,-0.00187,-173.21,,,,,,,
40038.15,-0.00184,-168.91,,,,,,,
40038.16,-0.00182,-164.75,,,,,,,
40038.18,-0.00179,-160.6,,,,,,,
40038.2,-0.00177,-156.63,,,,,,,
40038.22,-0.00174,-152.71,,,,,,,
40038.25,-0.00171,-148.66,,,,,,,
40038.27,-0.00169,-144.8,,,,,,,
40038.3,-0.00166,-141.05,,,,,,,
40038.32,-0.00164,-137.48,,,,,,,
40038.35,-0.00161,-134.01,,,,,,,
40038.38,-0.00159,-130.39,,,,,,,
40038.4,-0.00156,-126.59,,,,,,,
40038.43,-0.00154,-122.85,,,,,,,
40038.46,-0.00151,-119.54,,,,,,,
40038.49,-0.00149,-116.34,,,,,,,
40038.51,-0.00146,-113.11,,,,,,,
40038.53,-0.00143,-110.1,,,,,,,
40038.56,-0.00141,-106.97,,,,,,,
40038.59,-0.00138,-103.83,,,,,,,
40038.61,-0.00136,-101.01,,,,,,,
40038.63,-0.00133,-98.14,,,,,,,
40038.66,-0.00131,-95.26,,,,,,,
40038.68,-0.00128,-92.31,,,,,,,
40038.71,-0.00126,-89.46,,,,,,,
40038.74,-0.00123,-86.37,,,,,,,
40038.77,-0.00121,-83.05,,,,,,,
40038.81,-0.00118,-79.46,,,,,,,
40038.83,-0.00116,-76.22,,,,,,,
40038.84,-0.00115,-75.03,,,,,,,
40038.86,-0.00113,-73.02,,,,,,,
40038.88,-0.00111,-69.79,,,,,,,
40038.91,-0.00108,-66.83,,,,,,,
40038.93,-0.00105,-63.61,,,,,,,
40038.96,-0.00103,-60.71,,,,,,,
40038.99,-0.001,-57.64,,,,,,,
40039.01,-0.00098,-54.71,,,,,,,
40039.04,-0.00095,-51.88,,,,,,,
40039.06,-0.00093,-49.04,,,,,,,
40039.09,-0.0009,-46.36,,,,,,,
40039.11,-0.00088,-43.66,,,,,,,
40039.14,-0.00085,-41.24,,,,,,,
40039.16,-0.00082,-38.67,,,,,,,
40039.19,-0.0008,-36.3,,,,,,,
40039.21,-0.00077,-34.01,,,,,,,
40039.24,-0.00075,-31.59,,,,,,,
40039.27,-0.00072,-29.04,,,,,,,
40039.29,-0.0007,-26.73,,,,,,,
40039.32,-0.00067,-24.21,,,,,,,
40039.34,-0.00065,-21.83,,,,,,,
40039.37,-0.00062,-19.42,,,,,,,
40039.4,-0.0006,-17.07,,,,,,,
40039.42,-0.00057,-14.66,,,,,,,
40039.45,-0.00054,-12.12,,,,,,,
40039.48,-0.00052,-9.65,,,,,,,
40039.5,-0.00049,-7.18,,,,,,,
40039.53,-0.00047,-4.68,,,,,,,
40039.56,-0.00044,-2.17,,,,,,,
40039.59,-0.00042,0.39,,,,,,,
40039.62,-0.00039,3.08,,,,,,,
40039.65,-0.00037,5.85,,,,,,,
40039.67,-0.00034,8.47,,,,,,,
40039.7,-0.00031,11.15,,,,,,,
40039.72,-0.00029,13.59,,,,,,,
40039.75,-0.00026,16.01,,,,,,,
40039.77,-0.00024,18.45,,,,,,,
40039.8,-0.00021,20.89,,,,,,,
40039.83,-0.00019,23.09,,,,,,,
40039.84,-0.00018,23.72,,,,,,,
40039.88,-0.00016,25.49,,,,,,,
