time,strain,stress,temperature,type,strain_rate,max_strain,title,youngs,poissons
0.0,3e-05,-4.77,950,fatigue,0.001,0.00215,315-16,144000,0.3
0.04,5e-05,-1.07,,,,,,,
0.07,8e-05,2.57,,,,,,,
0.1,0.0001,5.96,,,,,,,
0.12,0.00013,9.46,,,,,,,
0.15,0.00015,12.91,,,,,,,
0.18,0.00018,16.18,,,,,,,
0.21,0.0002,19.36,,,,,,,
0.25,0.00023,22.2,,,,,,,
0.33,0.00025,25.45,,,,,,,
0.38,0.00028,29.02,,,,,,,
0.42,0.0003,32.71,,,,,,,
0.44,0.00033,37.07,,,,,,,
0.46,0.00036,40.64,,,,,,,
0.47,0.00038,44.05,,,,,,,
0.49,0.00041,47.54,,,,,,,
0.51,0.00043,50.93,,,,,,,
0.53,0.00046,54.36,,,,,,,
0.55,0.00048,57.69,,,,,,,
0.58,0.00051,60.9,,,,,,,
0.61,0.00054,64.42,,,,,,,
0.65,0.00056,67.85,,,,,,,
0.68,0.00059,71.04,,,,,,,
0.72,0.00061,74.58,,,,,,,
0.76,0.00064,78.15,,,,,,,
0.79,0.00066,81.81,,,,,,,
0.82,0.00069,85.1,,,,,,,
0.85,0.00071,88.78,,,,,,,
0.87,0.00074,92.57,,,,,,,
0.89,0.00076,96.16,,,,,,,
0.91,0.00079,99.7,,,,,,,
0.93,0.00082,103.33,,,,,,,
0.95,0.00084,106.85,,,,,,,
0.97,0.00087,110.41,,,,,,,
0.98,0.00089,113.86,,,,,,,
1.0,0.00092,117.22,,,,,,,
1.02,0.00094,120.58,,,,,,,
1.04,0.00097,123.89,,,,,,,
1.06,0.001,127.13,,,,,,,
1.08,0.00102,130.59,,,,,,,
1.1,0.00105,134.05,,,,,,,
1.12,0.00107,137.18,,,,,,,
1.14,0.0011,140.44,,,,,,,
1.16,0.00112,143.62,,,,,,,
1.19,0.00115,146.82,,,,,,,
1.21,0.00118,149.76,,,,,,,
1.24,0.0012,152.38,,,,,,,
1.39,0.00118,145.09,,,,,,,
1.42,0.00115,141.1,,,,,,,
1.44,0.00112,137.37,,,,,,,
1.46,0.0011,133.68,,,,,,,
1.49,0.00107,129.95,,,,,,,
1.51,0.00105,126.48,,,,,,,
1.53,0.00102,122.92,,,,,,,
1.56,0.00099,119.33,,,,,,,
1.58,0.00097,115.9,,,,,,,
1.61,0.00094,112.43,,,,,,,
1.63,0.00092,108.98,,,,,,,
1.66,0.00089,105.53,,,,,,,
1.69,0.00087,102.08,,,,,,,
1.72,0.00084,98.64,,,,,,,
1.75,0.00082,95.11,,,,,,,
1.77,0.00079,91.74,,,,,,,
1.8,0.00077,88.25,,,,,,,
1.83,0.00074,84.79,,,,,,,
1.86,0.00071,81.26,,,,,,,
1.89,0.00069,77.82,,,,,,,
1.92,0.00066,74.29,,,,,,,
1.94,0.00064,70.98,,,,,,,
1.97,0.00061,67.53,,,,,,,
2.0,0.00059,63.93,,,,,,,
2.03,0.00056,60.52,,,,,,,
2.06,0.00054,57.04,,,,,,,
2.09,0.00051,53.53,,,,,,,
2.11,0.00049,50.15,,,,,,,
2.14,0.00046,46.75,,,,,,,
2.17,0.00044,43.28,,,,,,,
2.2,0.00041,39.98,,,,,,,
2.22,0.00039,36.51,,,,,,,
2.25,0.00036,33.17,,,,,,,
2.28,0.00033,29.75,,,,,,,
2.31,0.00031,26.39,,,,,,,
2.33,0.00028,23.0,,,,,,,
2.36,0.00026,19.53,,,,,,,
2.39,0.00023,16.27,,,,,,,
2.42,0.00021,12.86,,,,,,,
2.44,0.00018,9.58,,,,,,,
2.47,0.00016,6.13,,,,,,,
2.5,0.00013,2.89,,,,,,,
2.53,0.00011,-0.58,,,,,,,
2.56,8e-05,-3.91,,,,,,,
2.58,5e-05,-7.12,,,,,,,
2.61,3e-05,-10.46,,,,,,,
2.64,0.0,-13.77,,,,,,,
2.67,-2e-05,-16.79,,,,,,,
2.72,-5e-05,-19.16,,,,,,,
2.83,-7e-05,-22.44,,,,,,,
2.87,-0.0001,-25.82,,,,,,,
2.91,-0.00012,-29.35,,,,,,,
2.94,-0.00015,-33.0,,,,,,,
2.97,-0.00017,-36.45,,,,,,,
3.0,-0.0002,-39.91,,,,,,,
3.02,-0.00023,-43.97,,,,,,,
3.04,-0.00025,-47.33,,,,,,,
3.05,-0.00028,-50.84,,,,,,,
3.07,-0.0003,-54.12,,,,,,,
3.09,-0.00033,-57.33,,,,,,,
3.11,-0.00035,-60.62,,,,,,,
3.13,-0.00038,-63.85,,,,,,,
3.16,-0.00041,-67.09,,,,,,,
3.18,-0.00043,-70.66,,,,,,,
3.2,-0.00046,-74.16,,,,,,,
3.22,-0.00048,-77.61,,,,,,,
3.24,-0.00051,-81.15,,,,,,,
3.25,-0.00053,-84.75,,,,,,,
3.27,-0.00056,-88.11,,,,,,,
3.29,-0.00059,-91.44,,,,,,,
3.3,-0.00061,-94.83,,,,,,,
3.32,-0.00064,-98.23,,,,,,,
3.34,-0.00066,-101.5,,,,,,,
3.36,-0.00069,-104.7,,,,,,,
3.38,-0.00071,-108.1,,,,,,,
3.4,-0.00074,-111.3,,,,,,,
3.42,-0.00077,-114.6,,,,,,,
3.44,-0.00079,-117.7,,,,,,,
3.46,-0.00082,-120.8,,,,,,,
3.48,-0.00084,-123.9,,,,,,,
3.51,-0.00087,-127.0,,,,,,,
3.53,-0.00089,-130.0,,,,,,,
3.55,-0.00092,-133.0,,,,,,,
3.58,-0.00094,-136.0,,,,,,,
3.6,-0.00097,-139.1,,,,,,,
3.63,-0.00099,-142.1,,,,,,,
3.66,-0.00102,-145.0,,,,,,,
3.68,-0.00104,-147.9,,,,,,,
3.71,-0.00107,-150.8,,,,,,,
3.74,-0.0011,-153.8,,,,,,,
3.76,-0.00112,-156.5,,,,,,,
3.79,-0.00115,-159.3,,,,,,,
3.82,-0.00117,-161.8,,,,,,,
3.84,-0.0012,-163.3,,,,,,,
3.88,-0.00122,-163.7,,,,,,,
3.98,-0.0012,-153.9,,,,,,,
4.0,-0.00117,-149.5,,,,,,,
4.02,-0.00115,-145.4,,,,,,,
4.04,-0.00112,-141.6,,,,,,,
4.06,-0.0011,-137.7,,,,,,,
4.08,-0.00107,-133.8,,,,,,,
4.11,-0.00104,-130.0,,,,,,,
4.13,-0.00102,-126.2,,,,,,,
4.15,-0.00099,-122.4,,,,,,,
4.17,-0.00097,-118.7,,,,,,,
4.2,-0.00094,-115.1,,,,,,,
4.22,-0.00092,-111.2,,,,,,,
4.25,-0.00089,-107.5,,,,,,,
4.28,-0.00087,-103.9,,,,,,,
4.31,-0.00084,-100.0,,,,,,,
4.33,-0.00081,-96.28,,,,,,,
4.36,-0.00079,-92.83,,,,,,,
4.39,-0.00076,-89.11,,,,,,,
4.42,-0.00074,-85.51,,,,,,,
4.45,-0.00071,-82.02,,,,,,,
4.47,-0.00069,-78.25,,,,,,,
4.5,-0.00066,-74.79,,,,,,,
4.53,-0.00064,-71.27,,,,,,,
4.56,-0.00061,-67.69,,,,,,,
4.58,-0.00059,-64.3,,,,,,,
4.61,-0.00056,-60.79,,,,,,,
4.64,-0.00054,-57.35,,,,,,,
4.66,-0.00051,-53.91,,,,,,,
4.69,-0.00048,-50.41,,,,,,,
4.72,-0.00046,-46.89,,,,,,,
4.75,-0.00043,-43.49,,,,,,,
4.77,-0.00041,-39.95,,,,,,,
4.8,-0.00038,-36.33,,,,,,,
4.83,-0.00036,-32.84,,,,,,,
4.86,-0.00033,-29.35,,,,,,,
4.89,-0.0003,-25.94,,,,,,,
4.92,-0.00028,-22.41,,,,,,,
4.94,-0.00025,-18.75,,,,,,,
4.97,-0.00023,-15.55,,,,,,,
5.0,-0.0002,-11.93,,,,,,,
5.02,-0.00018,-8.68,,,,,,,
5.05,-0.00015,-5.39,,,,,,,
5.08,-0.00013,-1.94,,,,,,,
5.11,-0.0001,1.51,,,,,,,
5.14,-8e-05,4.94,,,,,,,
5.16,-5e-05,8.29,,,,,,,
5.19,-3e-05,11.69,,,,,,,
5.22,-0.0,15.1,,,,,,,
5.25,3e-05,18.28,,,,,,,
5.28,5e-05,21.58,,,,,,,
5.31,8e-05,24.86,,,,,,,
5.35,0.0001,27.73,,,,,,,
5.42,0.00013,30.67,,,,,,,
5.49,0.00015,34.14,,,,,,,
5.52,0.00018,37.89,,,,,,,
5.54,0.0002,41.39,,,,,,,
5.57,0.00023,44.81,,,,,,,
5.59,0.00025,48.81,,,,,,,
5.61,0.00028,52.14,,,,,,,
5.62,0.00031,55.47,,,,,,,
5.64,0.00033,58.78,,,,,,,
5.66,0.00036,61.88,,,,,,,
5.69,0.00038,65.13,,,,,,,
5.72,0.00041,68.42,,,,,,,
5.75,0.00043,71.54,,,,,,,
5.78,0.00046,74.67,,,,,,,
5.82,0.00048,78.08,,,,,,,
5.85,0.00051,81.25,,,,,,,
5.89,0.00054,84.63,,,,,,,
5.92,0.00056,87.94,,,,,,,
5.95,0.00059,91.26,,,,,,,
5.97,0.00061,94.87,,,,,,,
5.99,0.00064,98.39,,,,,,,
6.01,0.00066,101.74,,,,,,,
6.02,0.00069,104.96,,,,,,,
6.04,0.00071,108.28,,,,,,,
6.06,0.00074,111.62,,,,,,,
6.07,0.00077,114.68,,,,,,,
6.09,0.00079,117.88,,,,,,,
6.11,0.00082,121.06,,,,,,,
6.12,0.00084,124.24,,,,,,,
6.14,0.00087,127.31,,,,,,,
6.16,0.00089,130.32,,,,,,,
6.18,0.00092,133.27,,,,,,,
6.2,0.00095,136.02,,,,,,,
6.22,0.00097,138.72,,,,,,,
6.24,0.001,141.15,,,,,,,
6.26,0.00102,143.88,,,,,,,
6.28,0.00105,146.26,,,,,,,
6.3,0.00107,148.7,,,,,,,
6.32,0.0011,150.81,,,,,,,
6.34,0.00113,153.17,,,,,,,
6.37,0.00115,155.58,,,,,,,
6.4,0.00118,157.99,,,,,,,
6.42,0.0012,160.12,,,,,,,
6.45,0.00123,162.39,,,,,,,
6.48,0.00125,164.88,,,,,,,
6.49,0.00128,163.74,,,,,,,
6.49,0.00131,163.29,,,,,,,
6.5,0.00133,163.33,,,,,,,
6.5,0.00136,163.4,,,,,,,
6.5,0.0014,163.51,,,,,,,
6.5,0.00144,163.59,,,,,,,
6.5,0.00147,163.72,,,,,,,
6.51,0.0015,163.91,,,,,,,
6.52,0.00153,164.44,,,,,,,
6.54,0.00155,163.82,,,,,,,
6.59,0.00152,155.87,,,,,,,
6.6,0.0015,151.4,,,,,,,
6.61,0.00147,147.78,,,,,,,
6.63,0.00145,143.81,,,,,,,
6.64,0.00142,139.97,,,,,,,
6.65,0.00139,136.54,,,,,,,
6.67,0.00137,132.88,,,,,,,
6.68,0.00134,129.06,,,,,,,
6.69,0.00132,125.7,,,,,,,
6.71,0.00129,122.06,,,,,,,
6.72,0.00126,118.35,,,,,,,
6.74,0.00124,114.93,,,,,,,
6.75,0.00121,111.81,,,,,,,
6.77,0.00119,108.36,,,,,,,
6.79,0.00116,104.83,,,,,,,
6.81,0.00114,101.56,,,,,,,
6.84,0.00111,98.2,,,,,,,
6.86,0.00109,94.89,,,,,,,
6.89,0.00106,91.66,,,,,,,
6.92,0.00103,88.19,,,,,,,
6.95,0.00101,84.76,,,,,,,
6.98,0.00098,81.66,,,,,,,
7.01,0.00096,77.92,,,,,,,
7.04,0.00093,74.48,,,,,,,
7.07,0.00091,70.96,,,,,,,
7.1,0.00088,67.56,,,,,,,
7.13,0.00086,63.94,,,,,,,
7.16,0.00083,60.47,,,,,,,
7.19,0.00081,56.98,,,,,,,
7.22,0.00078,53.5,,,,,,,
7.25,0.00075,49.92,,,,,,,
7.27,0.00073,46.56,,,,,,,
7.3,0.0007,43.05,,,,,,,
7.33,0.00068,39.66,,,,,,,
7.36,0.00065,36.14,,,,,,,
7.39,0.00063,32.66,,,,,,,
7.41,0.0006,29.13,,,,,,,
7.44,0.00058,25.77,,,,,,,
7.47,0.00055,22.17,,,,,,,
7.5,0.00053,18.75,,,,,,,
7.53,0.0005,15.33,,,,,,,
7.55,0.00047,11.9,,,,,,,
7.58,0.00045,8.45,,,,,,,
7.61,0.00042,4.9,,,,,,,
7.64,0.0004,1.66,,,,,,,
7.67,0.00037,-1.76,,,,,,,
7.69,0.00035,-5.19,,,,,,,
7.72,0.00032,-8.44,,,,,,,
7.75,0.0003,-11.81,,,,,,,
7.78,0.00027,-15.23,,,,,,,
7.81,0.00025,-18.11,,,,,,,
7.94,0.00022,-20.59,,,,,,,
8.0,0.0002,-24.18,,,,,,,
8.04,0.00017,-27.7,,,,,,,
8.07,0.00014,-31.02,,,,,,,
8.1,0.00012,-34.54,,,,,,,
8.13,9e-05,-38.26,,,,,,,
8.15,7e-05,-41.67,,,,,,,
8.18,4e-05,-45.03,,,,,,,
8.2,2e-05,-49.02,,,,,,,
8.21,-1e-05,-52.49,,,,,,,
8.23,-3e-05,-55.81,,,,,,,
8.24,-6e-05,-59.17,,,,,,,
8.26,-9e-05,-62.35,,,,,,,
8.28,-0.00011,-65.71,,,,,,,
8.3,-0.00014,-69.31,,,,,,,
8.31,-0.00016,-72.65,,,,,,,
8.33,-0.00019,-76.22,,,,,,,
8.34,-0.00021,-79.52,,,,,,,
8.36,-0.00024,-82.86,,,,,,,
8.38,-0.00027,-86.23,,,,,,,
8.39,-0.00029,-89.35,,,,,,,
8.41,-0.00032,-92.57,,,,,,,
8.43,-0.00034,-95.85,,,,,,,
8.44,-0.00037,-98.94,,,,,,,
8.46,-0.00039,-102.1,,,,,,,
8.48,-0.00042,-105.2,,,,,,,
8.5,-0.00045,-108.3,,,,,,,
8.52,-0.00047,-111.2,,,,,,,
8.54,-0.0005,-114.2,,,,,,,
8.57,-0.00052,-117.2,,,,,,,
8.59,-0.00055,-120.2,,,,,,,
8.61,-0.00057,-123.0,,,,,,,
8.64,-0.0006,-126.0,,,,,,,
8.66,-0.00062,-128.6,,,,,,,
8.68,-0.00065,-131.3,,,,,,,
8.71,-0.00067,-133.8,,,,,,,
8.73,-0.0007,-136.3,,,,,,,
8.75,-0.00073,-138.4,,,,,,,
8.77,-0.00075,-140.3,,,,,,,
8.79,-0.00078,-141.9,,,,,,,
8.81,-0.00081,-143.0,,,,,,,
8.81,-0.00083,-143.6,,,,,,,
8.83,-0.00086,-144.5,,,,,,,
8.84,-0.00089,-145.0,,,,,,,
8.85,-0.00091,-145.6,,,,,,,
8.87,-0.00094,-146.2,,,,,,,
8.89,-0.00096,-146.5,,,,,,,
8.95,-0.00099,-146.6,,,,,,,
9.01,-0.00101,-147.3,,,,,,,
9.07,-0.00104,-149.6,,,,,,,
9.1,-0.00106,-152.0,,,,,,,
9.14,-0.00109,-154.4,,,,,,,
9.17,-0.00111,-156.9,,,,,,,
9.19,-0.00114,-159.4,,,,,,,
9.22,-0.00116,-161.5,,,,,,,
9.24,-0.00119,-161.4,,,,,,,
9.24,-0.00122,-161.7,,,,,,,
9.24,-0.00125,-161.9,,,,,,,
9.25,-0.00128,-162.0,,,,,,,
9.25,-0.00132,-162.2,,,,,,,
9.25,-0.00134,-162.4,,,,,,,
9.25,-0.00137,-162.7,,,,,,,
9.28,-0.0014,-163.8,,,,,,,
9.42,-0.00137,-152.0,,,,,,,
9.44,-0.00135,-147.4,,,,,,,
9.47,-0.00132,-143.3,,,,,,,
9.49,-0.00129,-139.4,,,,,,,
9.51,-0.00127,-135.6,,,,,,,
9.53,-0.00124,-131.9,,,,,,,
9.55,-0.00122,-128.3,,,,,,,
9.57,-0.00119,-124.8,,,,,,,
9.59,-0.00117,-121.1,,,,,,,
9.61,-0.00114,-117.7,,,,,,,
9.64,-0.00111,-114.2,,,,,,,
9.66,-0.00109,-110.7,,,,,,,
9.69,-0.00106,-107.2,,,,,,,
9.71,-0.00104,-104.0,,,,,,,
9.74,-0.00101,-100.6,,,,,,,
9.77,-0.00099,-97.19,,,,,,,
9.8,-0.00096,-94.03,,,,,,,
9.82,-0.00094,-90.63,,,,,,,
9.83,-0.00093,-89.26,,,,,,,
9.85,-0.00091,-87.43,,,,,,,
9.88,-0.00089,-84.1,,,,,,,
9.91,-0.00086,-80.82,,,,,,,
9.93,-0.00083,-77.56,,,,,,,
9.96,-0.00081,-74.26,,,,,,,
9.99,-0.00078,-71.05,,,,,,,
10.02,-0.00076,-67.8,,,,,,,
10.05,-0.00073,-64.39,,,,,,,
10.07,-0.00071,-61.17,,,,,,,
10.1,-0.00068,-57.71,,,,,,,
10.13,-0.00066,-54.4,,,,,,,
10.16,-0.00063,-51.15,,,,,,,
10.19,-0.0006,-47.85,,,,,,,
10.22,-0.00058,-44.39,,,,,,,
10.24,-0.00055,-41.41,,,,,,,
10.27,-0.00053,-38.32,,,,,,,
10.29,-0.0005,-35.15,,,,,,,
10.32,-0.00048,-32.07,,,,,,,
10.35,-0.00045,-28.69,,,,,,,
10.38,-0.00042,-25.23,,,,,,,
10.41,-0.0004,-21.96,,,,,,,
10.43,-0.00037,-19.01,,,,,,,
10.46,-0.00035,-16.0,,,,,,,
10.48,-0.00032,-12.98,,,,,,,
10.51,-0.0003,-9.86,,,,,,,
10.54,-0.00027,-6.78,,,,,,,
10.57,-0.00025,-3.56,,,,,,,
10.6,-0.00022,-0.37,,,,,,,
10.63,-0.0002,3.0,,,,,,,
10.65,-0.00017,6.34,,,,,,,
10.68,-0.00015,9.88,,,,,,,
22.42,-0.00015,28.74,,,,,,,
22.48,-0.00013,31.49,,,,,,,
22.54,-0.0001,34.12,,,,,,,
22.58,-8e-05,37.32,,,,,,,
22.61,-5e-05,40.93,,,,,,,
22.64,-2e-05,44.61,,,,,,,
22.66,0.0,48.52,,,,,,,
22.68,3e-05,51.6,,,,,,,
22.69,5e-05,54.54,,,,,,,
22.71,8e-05,57.63,,,,,,,
22.74,0.0001,60.66,,,,,,,
22.76,0.00013,63.75,,,,,,,
22.78,0.00015,66.45,,,,,,,
22.81,0.00018,69.21,,,,,,,
22.85,0.0002,72.05,,,,,,,
22.88,0.00023,74.85,,,,,,,
22.91,0.00026,77.43,,,,,,,
22.94,0.00028,79.96,,,,,,,
22.97,0.00031,82.74,,,,,,,
23.01,0.00033,85.63,,,,,,,
23.04,0.00036,88.61,,,,,,,
23.06,0.00038,91.82,,,,,,,
23.08,0.00041,94.82,,,,,,,
23.1,0.00043,98.12,,,,,,,
23.12,0.00046,101.24,,,,,,,
23.13,0.00049,104.24,,,,,,,
23.15,0.00051,107.19,,,,,,,
23.16,0.00054,110.13,,,,,,,
23.18,0.00056,112.89,,,,,,,
23.2,0.00059,115.58,,,,,,,
23.21,0.00061,118.46,,,,,,,
23.23,0.00064,121.28,,,,,,,
23.25,0.00066,123.9,,,,,,,
23.27,0.00069,126.52,,,,,,,
23.29,0.00072,129.14,,,,,,,
23.31,0.00074,131.68,,,,,,,
23.33,0.00077,134.09,,,,,,,
23.35,0.00079,136.5,,,,,,,
23.37,0.00082,138.75,,,,,,,
23.39,0.00084,140.91,,,,,,,
23.41,0.00087,143.16,,,,,,,
23.44,0.0009,145.29,,,,,,,
23.46,0.00092,147.34,,,,,,,
23.49,0.00095,149.44,,,,,,,
23.51,0.00097,151.41,,,,,,,
23.54,0.001,153.48,,,,,,,
23.56,0.00102,155.46,,,,,,,
23.59,0.00105,157.38,,,,,,,
23.61,0.00107,159.27,,,,,,,
23.64,0.0011,161.04,,,,,,,
23.67,0.00112,162.92,,,,,,,
23.7,0.00115,164.93,,,,,,,
23.72,0.00118,163.81,,,,,,,
23.72,0.0012,164.17,,,,,,,
23.72,0.00123,164.31,,,,,,,
23.72,0.00126,164.44,,,,,,,
23.73,0.00129,164.69,,,,,,,
23.75,0.00132,165.95,,,,,,,
23.78,0.00134,166.32,,,,,,,
23.82,0.00137,165.69,,,,,,,
23.88,0.00139,164.53,,,,,,,
23.94,0.00142,164.35,,,,,,,
24.03,0.00144,162.23,,,,,,,
24.1,0.00142,153.56,,,,,,,
24.13,0.00139,148.81,,,,,,,
24.15,0.00137,144.37,,,,,,,
24.18,0.00134,139.89,,,,,,,
24.2,0.00132,135.66,,,,,,,
24.22,0.00129,131.49,,,,,,,
24.24,0.00127,127.35,,,,,,,
24.27,0.00124,123.25,,,,,,,
24.29,0.00121,119.19,,,,,,,
24.31,0.00119,115.17,,,,,,,
24.34,0.00116,111.33,,,,,,,
24.36,0.00114,107.71,,,,,,,
24.39,0.00111,104.02,,,,,,,
24.41,0.00109,100.34,,,,,,,
24.44,0.00106,96.53,,,,,,,
24.47,0.00104,92.92,,,,,,,
24.5,0.00101,88.98,,,,,,,
24.53,0.00099,85.3,,,,,,,
24.56,0.00096,81.52,,,,,,,
24.58,0.00093,77.73,,,,,,,
24.61,0.00091,73.85,,,,,,,
24.64,0.00088,70.28,,,,,,,
24.67,0.00086,66.82,,,,,,,
24.69,0.00083,63.18,,,,,,,
24.72,0.00081,59.66,,,,,,,
24.75,0.00078,56.04,,,,,,,
24.78,0.00076,52.63,,,,,,,
24.8,0.00073,49.09,,,,,,,
24.83,0.0007,45.28,,,,,,,
24.86,0.00068,41.7,,,,,,,
24.89,0.00065,38.25,,,,,,,
24.92,0.00063,34.71,,,,,,,
24.95,0.0006,31.0,,,,,,,
24.97,0.00058,27.51,,,,,,,
25.0,0.00055,24.0,,,,,,,
25.03,0.00053,20.72,,,,,,,
25.05,0.0005,17.39,,,,,,,
25.08,0.00048,14.24,,,,,,,
25.11,0.00045,10.73,,,,,,,
25.13,0.00042,7.49,,,,,,,
25.16,0.0004,4.32,,,,,,,
25.19,0.00037,1.07,,,,,,,
25.22,0.00035,-2.11,,,,,,,
25.24,0.00032,-5.31,,,,,,,
25.27,0.0003,-8.43,,,,,,,
25.3,0.00027,-11.57,,,,,,,
25.33,0.00025,-14.71,,,,,,,
25.36,0.00022,-17.74,,,,,,,
25.49,0.0002,-20.25,,,,,,,
25.55,0.00017,-24.22,,,,,,,
25.58,0.00014,-27.61,,,,,,,
25.62,0.00012,-30.83,,,,,,,
25.65,9e-05,-34.14,,,,,,,
25.68,7e-05,-37.43,,,,,,,
25.7,4e-05,-40.74,,,,,,,
25.72,2e-05,-43.91,,,,,,,
25.74,-1e-05,-47.22,,,,,,,
25.76,-3e-05,-51.14,,,,,,,
25.78,-6e-05,-54.49,,,,,,,
25.79,-9e-05,-57.42,,,,,,,
25.81,-0.00011,-60.68,,,,,,,
25.82,-0.00014,-63.83,,,,,,,
25.84,-0.00016,-67.13,,,,,,,
25.85,-0.00019,-70.6,,,,,,,
25.87,-0.00021,-73.5,,,,,,,
25.88,-0.00024,-76.61,,,,,,,
25.9,-0.00027,-79.59,,,,,,,
25.91,-0.00029,-82.59,,,,,,,
25.93,-0.00032,-85.43,,,,,,,
25.94,-0.00034,-88.37,,,,,,,
25.96,-0.00037,-91.12,,,,,,,
25.97,-0.00039,-93.99,,,,,,,
25.99,-0.00042,-96.66,,,,,,,
26.01,-0.00045,-99.49,,,,,,,
26.03,-0.00047,-102.2,,,,,,,
26.05,-0.0005,-105.1,,,,,,,
26.07,-0.00052,-108.0,,,,,,,
26.1,-0.00055,-110.6,,,,,,,
26.12,-0.00058,-113.3,,,,,,,
26.15,-0.0006,-116.0,,,,,,,
26.17,-0.00063,-118.5,,,,,,,
26.19,-0.00065,-120.8,,,,,,,
26.22,-0.00068,-123.2,,,,,,,
26.24,-0.0007,-125.6,,,,,,,
26.26,-0.00073,-127.9,,,,,,,
26.29,-0.00075,-130.0,,,,,,,
26.31,-0.00078,-132.3,,,,,,,
26.34,-0.0008,-134.8,,,,,,,
26.37,-0.00083,-137.3,,,,,,,
26.4,-0.00085,-139.6,,,,,,,
26.42,-0.00088,-141.8,,,,,,,
26.45,-0.0009,-144.0,,,,,,,
26.47,-0.00093,-146.1,,,,,,,
26.5,-0.00096,-148.2,,,,,,,
26.52,-0.00098,-150.2,,,,,,,
26.55,-0.00101,-152.2,,,,,,,
26.57,-0.00103,-154.0,,,,,,,
26.6,-0.00106,-156.0,,,,,,,
26.62,-0.00108,-157.9,,,,,,,
26.65,-0.00111,-160.0,,,,,,,
26.68,-0.00113,-161.8,,,,,,,
26.69,-0.00116,-161.1,,,,,,,
26.69,-0.00119,-161.4,,,,,,,
26.7,-0.00122,-161.6,,,,,,,
26.72,-0.00125,-163.1,,,,,,,
26.76,-0.00127,-164.2,,,,,,,
26.8,-0.0013,-164.9,,,,,,,
26.84,-0.00132,-165.8,,,,,,,
26.88,-0.00135,-167.0,,,,,,,
26.92,-0.00137,-168.5,,,,,,,
26.95,-0.0014,-170.0,,,,,,,
26.98,-0.00142,-170.7,,,,,,,
27.13,-0.0014,-156.1,,,,,,,
27.15,-0.00137,-151.3,,,,,,,
27.18,-0.00135,-146.9,,,,,,,
27.2,-0.00132,-142.5,,,,,,,
27.22,-0.0013,-138.1,,,,,,,
27.24,-0.00127,-133.8,,,,,,,
27.26,-0.00125,-129.7,,,,,,,
27.28,-0.00122,-125.5,,,,,,,
27.3,-0.0012,-121.9,,,,,,,
27.33,-0.00117,-118.0,,,,,,,
27.35,-0.00114,-114.2,,,,,,,
27.37,-0.00112,-110.6,,,,,,,
27.4,-0.00109,-106.7,,,,,,,
27.42,-0.00107,-103.0,,,,,,,
27.45,-0.00104,-99.24,,,,,,,
27.48,-0.00102,-95.41,,,,,,,
27.51,-0.00099,-91.65,,,,,,,
27.53,-0.00097,-88.27,,,,,,,
27.56,-0.00094,-84.51,,,,,,,
27.59,-0.00091,-80.72,,,,,,,
27.62,-0.00089,-77.13,,,,,,,
27.64,-0.00086,-73.46,,,,,,,
27.67,-0.00084,-69.75,,,,,,,
27.7,-0.00081,-66.2,,,,,,,
27.73,-0.00079,-62.77,,,,,,,
27.75,-0.00076,-59.24,,,,,,,
27.78,-0.00074,-55.72,,,,,,,
27.81,-0.00071,-52.34,,,,,,,
27.84,-0.00069,-48.92,,,,,,,
27.86,-0.00066,-45.39,,,,,,,
27.89,-0.00064,-42.19,,,,,,,
27.92,-0.00061,-38.62,,,,,,,
27.94,-0.00058,-35.25,,,,,,,
27.97,-0.00056,-31.97,,,,,,,
28.0,-0.00053,-28.56,,,,,,,
28.02,-0.00051,-25.12,,,,,,,
28.05,-0.00048,-21.81,,,,,,,
28.08,-0.00046,-18.5,,,,,,,
28.11,-0.00043,-15.12,,,,,,,
28.14,-0.00041,-11.62,,,,,,,
28.16,-0.00038,-8.3,,,,,,,
28.19,-0.00036,-5.06,,,,,,,
28.22,-0.00033,-1.54,,,,,,,
28.25,-0.00031,1.74,,,,,,,
28.27,-0.00028,5.09,,,,,,,
28.3,-0.00025,8.59,,,,,,,
28.33,-0.00023,11.75,,,,,,,
28.36,-0.0002,15.0,,,,,,,
28.38,-0.00018,18.26,,,,,,,
28.41,-0.00015,21.45,,,,,,,
52.47,-0.00017,29.86,,,,,,,
52.52,-0.00015,32.4,,,,,,,
52.58,-0.00012,35.4,,,,,,,
52.61,-0.0001,38.83,,,,,,,
52.64,-7e-05,41.97,,,,,,,
52.66,-4e-05,45.52,,,,,,,
52.68,-2e-05,48.64,,,,,,,
52.69,1e-05,51.78,,,,,,,
52.71,3e-05,54.71,,,,,,,
52.73,6e-05,57.44,,,,,,,
52.75,8e-05,60.29,,,,,,,
52.77,0.00011,62.85,,,,,,,
52.8,0.00013,65.51,,,,,,,
52.83,0.00016,67.9,,,,,,,
52.86,0.00019,70.24,,,,,,,
52.89,0.00021,72.4,,,,,,,
52.92,0.00024,74.48,,,,,,,
52.95,0.00026,76.71,,,,,,,
52.98,0.00029,79.04,,,,,,,
53.02,0.00031,81.5,,,,,,,
53.04,0.00034,83.91,,,,,,,
53.07,0.00036,86.79,,,,,,,
53.09,0.00039,89.77,,,,,,,
53.11,0.00042,92.54,,,,,,,
53.13,0.00044,95.33,,,,,,,
53.15,0.00047,98.3,,,,,,,
53.16,0.00049,101.08,,,,,,,
53.18,0.00052,103.84,,,,,,,
53.2,0.00054,106.54,,,,,,,
53.22,0.00057,109.38,,,,,,,
53.23,0.0006,112.1,,,,,,,
53.25,0.00062,114.81,,,,,,,
53.27,0.00065,117.44,,,,,,,
53.29,0.00067,120.02,,,,,,,
53.31,0.0007,122.6,,,,,,,
53.33,0.00072,125.19,,,,,,,
53.35,0.00075,127.52,,,,,,,
53.37,0.00078,129.9,,,,,,,
53.4,0.0008,132.33,,,,,,,
53.42,0.00083,134.48,,,,,,,
53.44,0.00085,136.58,,,,,,,
53.47,0.00088,138.67,,,,,,,
53.49,0.0009,140.65,,,,,,,
53.51,0.00093,142.74,,,,,,,
53.54,0.00096,144.63,,,,,,,
53.56,0.00098,146.55,,,,,,,
53.59,0.00101,148.39,,,,,,,
53.61,0.00103,150.36,,,,,,,
53.64,0.00106,152.2,,,,,,,
53.67,0.00108,154.06,,,,,,,
53.69,0.00111,155.89,,,,,,,
53.72,0.00113,157.63,,,,,,,
53.74,0.00116,159.31,,,,,,,
53.76,0.00118,160.97,,,,,,,
53.79,0.00121,160.78,,,,,,,
53.8,0.00123,161.38,,,,,,,
53.8,0.00126,161.84,,,,,,,
53.83,0.00129,163.35,,,,,,,
53.86,0.00131,164.62,,,,,,,
53.89,0.00134,165.7,,,,,,,
53.92,0.00136,166.69,,,,,,,
53.95,0.00139,167.69,,,,,,,
53.98,0.00141,168.61,,,,,,,
54.01,0.00144,169.1,,,,,,,
54.16,0.00141,152.79,,,,,,,
54.18,0.00139,148.23,,,,,,,
54.2,0.00136,143.79,,,,,,,
54.22,0.00134,139.28,,,,,,,
54.25,0.00131,134.76,,,,,,,
54.27,0.00129,130.28,,,,,,,
54.29,0.00126,126.18,,,,,,,
54.31,0.00124,122.24,,,,,,,
54.33,0.00121,118.54,,,,,,,
54.36,0.00119,114.75,,,,,,,
54.38,0.00116,110.98,,,,,,,
54.4,0.00113,107.28,,,,,,,
54.43,0.00111,103.74,,,,,,,
54.45,0.00108,100.09,,,,,,,
54.48,0.00106,96.61,,,,,,,
54.51,0.00103,93.03,,,,,,,
54.53,0.00101,89.39,,,,,,,
54.56,0.00098,85.72,,,,,,,
54.59,0.00096,82.05,,,,,,,
54.62,0.00093,78.36,,,,,,,
54.65,0.00091,74.9,,,,,,,
54.67,0.00088,71.65,,,,,,,
54.7,0.00086,68.28,,,,,,,
54.73,0.00083,65.04,,,,,,,
54.75,0.0008,61.74,,,,,,,
54.78,0.00078,58.4,,,,,,,
54.81,0.00075,54.98,,,,,,,
54.84,0.00073,51.56,,,,,,,
54.86,0.0007,48.34,,,,,,,
54.89,0.00068,45.04,,,,,,,
54.92,0.00065,41.92,,,,,,,
54.95,0.00063,38.34,,,,,,,
54.98,0.0006,35.0,,,,,,,
55.0,0.00058,31.63,,,,,,,
55.03,0.00055,28.09,,,,,,,
55.06,0.00052,24.85,,,,,,,
55.09,0.0005,21.58,,,,,,,
55.11,0.00047,18.39,,,,,,,
55.14,0.00045,15.21,,,,,,,
55.17,0.00042,12.29,,,,,,,
55.19,0.0004,9.01,,,,,,,
55.22,0.00037,5.9,,,,,,,
55.25,0.00035,2.61,,,,,,,
55.28,0.00032,-0.55,,,,,,,
55.31,0.00029,-3.84,,,,,,,
55.34,0.00027,-7.11,,,,,,,
55.36,0.00024,-10.15,,,,,,,
55.39,0.00022,-13.31,,,,,,,
55.42,0.00019,-16.36,,,,,,,
55.49,0.00017,-18.17,,,,,,,
55.59,0.00014,-20.82,,,,,,,
55.63,0.00012,-23.86,,,,,,,
55.66,9e-05,-26.83,,,,,,,
55.7,7e-05,-29.5,,,,,,,
55.73,4e-05,-32.48,,,,,,,
55.76,1e-05,-35.47,,,,,,,
55.78,-1e-05,-38.72,,,,,,,
55.8,-4e-05,-41.7,,,,,,,
55.83,-6e-05,-44.77,,,,,,,
55.85,-9e-05,-48.49,,,,,,,
55.86,-0.00011,-51.76,,,,,,,
55.88,-0.00014,-54.67,,,,,,,
55.89,-0.00016,-57.82,,,,,,,
55.91,-0.00019,-61.13,,,,,,,
55.93,-0.00022,-64.39,,,,,,,
55.94,-0.00024,-67.45,,,,,,,
55.96,-0.00027,-70.63,,,,,,,
55.97,-0.00029,-73.75,,,,,,,
55.99,-0.00032,-76.75,,,,,,,
56.0,-0.00035,-79.74,,,,,,,
56.02,-0.00037,-82.87,,,,,,,
56.04,-0.0004,-85.62,,,,,,,
56.05,-0.00042,-88.42,,,,,,,
56.07,-0.00045,-91.31,,,,,,,
56.09,-0.00047,-94.1,,,,,,,
56.11,-0.0005,-96.61,,,,,,,
56.13,-0.00053,-99.31,,,,,,,
56.15,-0.00055,-101.9,,,,,,,
56.17,-0.00058,-104.6,,,,,,,
56.19,-0.0006,-107.4,,,,,,,
56.22,-0.00063,-110.0,,,,,,,
56.24,-0.00065,-112.4,,,,,,,
56.26,-0.00068,-114.9,,,,,,,
56.29,-0.0007,-117.3,,,,,,,
56.31,-0.00073,-119.6,,,,,,,
56.33,-0.00076,-121.8,,,,,,,
56.36,-0.00078,-123.9,,,,,,,
56.38,-0.00081,-126.2,,,,,,,
56.41,-0.00083,-128.4,,,,,,,
56.43,-0.00086,-130.5,,,,,,,
56.46,-0.00088,-132.6,,,,,,,
56.48,-0.00091,-134.6,,,,,,,
56.51,-0.00093,-136.7,,,,,,,
56.54,-0.00096,-138.9,,,,,,,
56.56,-0.00098,-140.9,,,,,,,
56.59,-0.00101,-142.9,,,,,,,
56.62,-0.00104,-145.0,,,,,,,
56.64,-0.00106,-146.9,,,,,,,
56.67,-0.00109,-148.7,,,,,,,
56.69,-0.00111,-150.4,,,,,,,
56.71,-0.00114,-152.1,,,,,,,
56.74,-0.00116,-153.9,,,,,,,
56.77,-0.00119,-155.8,,,,,,,
56.8,-0.00121,-157.7,,,,,,,
56.83,-0.00124,-159.9,,,,,,,
56.85,-0.00126,-161.7,,,,,,,
56.88,-0.00129,-163.6,,,,,,,
56.9,-0.00131,-165.2,,,,,,,
56.93,-0.00134,-166.6,,,,,,,
56.95,-0.00137,-168.0,,,,,,,
56.96,-0.00139,-166.5,,,,,,,
56.96,-0.00142,-166.8,,,,,,,
56.97,-0.00145,-167.1,,,,,,,
57.0,-0.00147,-168.4,,,,,,,
57.15,-0.00145,-150.7,,,,,,,
57.17,-0.00142,-145.9,,,,,,,
57.19,-0.0014,-141.4,,,,,,,
57.21,-0.00137,-137.2,,,,,,,
57.23,-0.00134,-132.9,,,,,,,
57.24,-0.00132,-129.0,,,,,,,
57.26,-0.00129,-125.0,,,,,,,
57.28,-0.00127,-121.1,,,,,,,
57.3,-0.00124,-117.0,,,,,,,
57.33,-0.00122,-113.0,,,,,,,
57.35,-0.00119,-109.2,,,,,,,
57.37,-0.00116,-105.5,,,,,,,
57.4,-0.00114,-101.7,,,,,,,
57.42,-0.00111,-97.91,,,,,,,
57.45,-0.00109,-94.24,,,,,,,
57.48,-0.00106,-90.29,,,,,,,
57.5,-0.00104,-86.8,,,,,,,
57.53,-0.00101,-83.11,,,,,,,
57.56,-0.00099,-79.34,,,,,,,
57.59,-0.00096,-76.16,,,,,,,
57.61,-0.00093,-73.19,,,,,,,
57.64,-0.00091,-69.45,,,,,,,
57.67,-0.00088,-66.04,,,,,,,
57.7,-0.00086,-62.15,,,,,,,
57.73,-0.00083,-58.45,,,,,,,
57.75,-0.00081,-55.13,,,,,,,
57.78,-0.00078,-51.6,,,,,,,
57.81,-0.00076,-48.04,,,,,,,
57.84,-0.00073,-44.53,,,,,,,
57.86,-0.0007,-41.3,,,,,,,
57.89,-0.00068,-37.93,,,,,,,
57.92,-0.00065,-34.37,,,,,,,
57.94,-0.00063,-31.02,,,,,,,
57.97,-0.0006,-27.34,,,,,,,
58.0,-0.00058,-23.79,,,,,,,
58.03,-0.00055,-20.53,,,,,,,
58.06,-0.00053,-17.2,,,,,,,
58.08,-0.0005,-13.67,,,,,,,
58.11,-0.00048,-10.37,,,,,,,
58.14,-0.00045,-6.91,,,,,,,
58.17,-0.00042,-3.59,,,,,,,
58.2,-0.0004,0.01,,,,,,,
58.22,-0.00037,3.27,,,,,,,
58.25,-0.00035,6.77,,,,,,,
58.28,-0.00032,10.03,,,,,,,
58.3,-0.0003,13.11,,,,,,,
58.33,-0.00027,16.14,,,,,,,
58.36,-0.00025,19.51,,,,,,,
58.38,-0.00022,22.69,,,,,,,
58.42,-0.0002,25.79,,,,,,,
112.55,-0.00013,22.94,,,,,,,
112.58,-0.0001,25.51,,,,,,,
112.63,-8e-05,27.72,,,,,,,
112.68,-5e-05,30.05,,,,,,,
112.73,-3e-05,32.53,,,,,,,
112.78,0.0,35.23,,,,,,,
112.81,3e-05,38.4,,,,,,,
112.83,5e-05,41.87,,,,,,,
112.85,8e-05,45.1,,,,,,,
112.87,0.0001,48.08,,,,,,,
112.89,0.00013,51.12,,,,,,,
112.91,0.00015,54.23,,,,,,,
112.93,0.00018,57.07,,,,,,,
112.96,0.00021,59.83,,,,,,,
112.98,0.00023,62.5,,,,,,,
113.01,0.00026,65.17,,,,,,,
113.05,0.00028,67.77,,,,,,,
113.08,0.00031,70.4,,,,,,,
113.11,0.00033,72.91,,,,,,,
113.15,0.00036,75.75,,,,,,,
113.18,0.00038,78.45,,,,,,,
113.21,0.00041,81.4,,,,,,,
113.24,0.00043,84.09,,,,,,,
113.27,0.00046,87.0,,,,,,,
113.29,0.00048,90.12,,,,,,,
113.31,0.00051,93.11,,,,,,,
113.33,0.00054,96.22,,,,,,,
113.35,0.00056,99.26,,,,,,,
113.37,0.00059,102.18,,,,,,,
113.38,0.00061,105.13,,,,,,,
113.4,0.00064,108.05,,,,,,,
113.42,0.00067,110.96,,,,,,,
113.43,0.00069,113.56,,,,,,,
113.45,0.00072,116.4,,,,,,,
113.47,0.00074,119.09,,,,,,,
113.48,0.00077,121.76,,,,,,,
113.5,0.0008,124.22,,,,,,,
113.52,0.00082,126.57,,,,,,,
113.54,0.00085,128.92,,,,,,,
113.56,0.00087,131.32,,,,,,,
113.58,0.0009,133.59,,,,,,,
113.6,0.00092,135.8,,,,,,,
113.63,0.00095,137.87,,,,,,,
113.65,0.00097,139.92,,,,,,,
113.67,0.001,141.97,,,,,,,
113.7,0.00103,144.02,,,,,,,
113.72,0.00105,145.88,,,,,,,
113.75,0.00108,147.74,,,,,,,
113.77,0.0011,149.54,,,,,,,
113.8,0.00113,151.42,,,,,,,
113.82,0.00115,153.28,,,,,,,
113.85,0.00118,155.01,,,,,,,
113.87,0.0012,156.81,,,,,,,
113.9,0.00123,158.52,,,,,,,
113.92,0.00125,160.17,,,,,,,
113.95,0.00128,161.87,,,,,,,
113.97,0.00131,163.52,,,,,,,
114.0,0.00133,165.16,,,,,,,
114.02,0.00136,166.68,,,,,,,
114.05,0.00138,168.28,,,,,,,
114.07,0.00141,169.6,,,,,,,
114.1,0.00143,170.37,,,,,,,
114.15,0.00146,168.84,,,,,,,
114.23,0.00143,158.26,,,,,,,
114.26,0.00141,153.11,,,,,,,
114.28,0.00138,148.37,,,,,,,
114.3,0.00136,144.04,,,,,,,
114.32,0.00133,139.65,,,,,,,
114.34,0.0013,135.65,,,,,,,
114.36,0.00128,131.55,,,,,,,
114.38,0.00125,127.57,,,,,,,
114.4,0.00123,123.7,,,,,,,
114.43,0.0012,119.76,,,,,,,
114.45,0.00118,115.97,,,,,,,
114.47,0.00115,111.98,,,,,,,
114.5,0.00113,108.32,,,,,,,
114.52,0.0011,104.52,,,,,,,
114.55,0.00107,100.67,,,,,,,
114.58,0.00105,96.88,,,,,,,
114.61,0.00102,92.91,,,,,,,
114.64,0.001,89.32,,,,,,,
114.66,0.00097,85.84,,,,,,,
114.69,0.00095,82.03,,,,,,,
114.72,0.00092,78.35,,,,,,,
114.75,0.0009,74.84,,,,,,,
114.77,0.00087,71.4,,,,,,,
114.8,0.00085,67.88,,,,,,,
114.83,0.00082,64.24,,,,,,,
114.86,0.0008,60.58,,,,,,,
114.89,0.00077,57.05,,,,,,,
114.91,0.00074,53.7,,,,,,,
114.94,0.00072,50.17,,,,,,,
114.97,0.00069,46.8,,,,,,,
114.99,0.00067,43.57,,,,,,,
115.02,0.00064,40.14,,,,,,,
115.05,0.00062,36.94,,,,,,,
115.07,0.00059,33.69,,,,,,,
115.1,0.00057,30.55,,,,,,,
115.13,0.00054,27.13,,,,,,,
115.16,0.00051,23.84,,,,,,,
115.19,0.00049,20.49,,,,,,,
115.21,0.00046,17.11,,,,,,,
115.24,0.00044,13.73,,,,,,,
115.27,0.00041,10.49,,,,,,,
115.3,0.00039,7.19,,,,,,,
115.33,0.00036,3.88,,,,,,,
115.35,0.00034,0.71,,,,,,,
115.38,0.00031,-2.65,,,,,,,
115.41,0.00028,-5.99,,,,,,,
115.44,0.00026,-9.19,,,,,,,
115.47,0.00023,-12.29,,,,,,,
115.5,0.00021,-15.46,,,,,,,
115.53,0.00018,-18.07,,,,,,,
115.67,0.00016,-20.83,,,,,,,
115.71,0.00013,-24.38,,,,,,,
115.74,0.00011,-27.41,,,,,,,
115.78,8e-05,-30.37,,,,,,,
115.81,6e-05,-33.44,,,,,,,
115.84,3e-05,-37.01,,,,,,,
115.86,1e-05,-40.33,,,,,,,
115.89,-2e-05,-43.76,,,,,,,
115.91,-4e-05,-47.16,,,,,,,
115.92,-7e-05,-50.94,,,,,,,
115.94,-0.0001,-54.09,,,,,,,
115.95,-0.00012,-57.27,,,,,,,
115.97,-0.00015,-60.36,,,,,,,
115.99,-0.00017,-63.5,,,,,,,
116.0,-0.0002,-66.58,,,,,,,
116.02,-0.00022,-69.72,,,,,,,
116.03,-0.00025,-72.79,,,,,,,
116.05,-0.00027,-75.91,,,,,,,
116.06,-0.0003,-79.01,,,,,,,
116.08,-0.00033,-82.1,,,,,,,
116.1,-0.00035,-85.23,,,,,,,
116.11,-0.00038,-88.27,,,,,,,
116.13,-0.0004,-91.13,,,,,,,
116.15,-0.00043,-94.08,,,,,,,
116.16,-0.00046,-96.89,,,,,,,
116.18,-0.00048,-99.7,,,,,,,
116.2,-0.00051,-102.4,,,,,,,
116.22,-0.00053,-105.1,,,,,,,
116.24,-0.00056,-107.4,,,,,,,
116.26,-0.00058,-109.7,,,,,,,
116.28,-0.00061,-111.9,,,,,,,
116.3,-0.00064,-114.1,,,,,,,
116.32,-0.00066,-116.2,,,,,,,
116.34,-0.00069,-118.4,,,,,,,
116.37,-0.00071,-120.5,,,,,,,
116.39,-0.00074,-122.6,,,,,,,
116.42,-0.00076,-124.8,,,,,,,
116.45,-0.00079,-127.0,,,,,,,
116.47,-0.00082,-129.0,,,,,,,
116.5,-0.00084,-131.2,,,,,,,
116.53,-0.00087,-133.2,,,,,,,
116.56,-0.00089,-135.4,,,,,,,
116.58,-0.00092,-137.6,,,,,,,
116.61,-0.00094,-139.6,,,,,,,
116.64,-0.00097,-141.6,,,,,,,
116.66,-0.00099,-143.7,,,,,,,
116.69,-0.00102,-145.8,,,,,,,
116.72,-0.00105,-147.9,,,,,,,
116.74,-0.00107,-149.9,,,,,,,
116.77,-0.0011,-152.0,,,,,,,
116.8,-0.00112,-153.9,,,,,,,
116.82,-0.00115,-155.9,,,,,,,
116.85,-0.00117,-157.9,,,,,,,
116.88,-0.0012,-159.9,,,,,,,
116.9,-0.00122,-161.7,,,,,,,
116.93,-0.00125,-163.5,,,,,,,
116.95,-0.00127,-165.3,,,,,,,
116.98,-0.0013,-167.0,,,,,,,
117.0,-0.00132,-168.7,,,,,,,
117.03,-0.00135,-170.4,,,,,,,
117.06,-0.00138,-172.0,,,,,,,
117.08,-0.0014,-173.2,,,,,,,
117.11,-0.00143,-174.0,,,,,,,
117.16,-0.00145,-172.7,,,,,,,
117.26,-0.00143,-160.0,,,,,,,
117.28,-0.0014,-155.1,,,,,,,
117.3,-0.00137,-150.2,,,,,,,
117.32,-0.00135,-145.1,,,,,,,
117.34,-0.00132,-140.4,,,,,,,
117.36,-0.0013,-135.8,,,,,,,
117.38,-0.00127,-131.6,,,,,,,
117.4,-0.00125,-127.3,,,,,,,
117.43,-0.00122,-123.1,,,,,,,
117.44,-0.0012,-119.3,,,,,,,
117.46,-0.00117,-115.7,,,,,,,
117.48,-0.00115,-112.2,,,,,,,
117.51,-0.00112,-108.5,,,,,,,
117.53,-0.00109,-105.0,,,,,,,
117.55,-0.00107,-101.3,,,,,,,
117.58,-0.00104,-97.78,,,,,,,
117.61,-0.00102,-94.08,,,,,,,
117.64,-0.00099,-90.08,,,,,,,
117.66,-0.00097,-86.59,,,,,,,
117.69,-0.00094,-82.62,,,,,,,
117.73,-0.00092,-78.42,,,,,,,
117.76,-0.00089,-74.57,,,,,,,
117.78,-0.00086,-70.95,,,,,,,
117.81,-0.00084,-67.63,,,,,,,
117.83,-0.00081,-64.26,,,,,,,
117.86,-0.00079,-60.59,,,,,,,
117.89,-0.00076,-57.0,,,,,,,
117.92,-0.00074,-53.5,,,,,,,
117.94,-0.00071,-50.34,,,,,,,
117.97,-0.00069,-46.79,,,,,,,
118.0,-0.00066,-43.14,,,,,,,
118.03,-0.00063,-39.49,,,,,,,
118.06,-0.00061,-35.62,,,,,,,
118.08,-0.00058,-32.28,,,,,,,
118.11,-0.00056,-28.92,,,,,,,
118.13,-0.00053,-25.71,,,,,,,
118.16,-0.00051,-22.21,,,,,,,
118.19,-0.00048,-18.89,,,,,,,
118.22,-0.00046,-15.28,,,,,,,
118.25,-0.00043,-11.87,,,,,,,
118.27,-0.00041,-8.65,,,,,,,
118.3,-0.00038,-5.66,,,,,,,
118.32,-0.00035,-2.39,,,,,,,
118.35,-0.00033,1.01,,,,,,,
118.38,-0.0003,4.2,,,,,,,
118.4,-0.00028,7.35,,,,,,,
118.43,-0.00025,10.52,,,,,,,
118.46,-0.00023,13.7,,,,,,,
118.49,-0.0002,16.82,,,,,,,
118.51,-0.00018,20.21,,,,,,,
292.81,-0.00014,21.46,,,,,,,
292.84,-0.00012,24.54,,,,,,,
292.87,-9e-05,27.24,,,,,,,
292.93,-7e-05,29.75,,,,,,,
292.98,-4e-05,32.52,,,,,,,
293.04,-2e-05,35.42,,,,,,,
293.07,1e-05,38.85,,,,,,,
293.1,4e-05,42.49,,,,,,,
293.12,6e-05,45.99,,,,,,,
293.14,9e-05,49.05,,,,,,,
293.15,0.00011,52.07,,,,,,,
293.17,0.00014,55.04,,,,,,,
293.19,0.00016,57.92,,,,,,,
293.21,0.00019,60.51,,,,,,,
293.24,0.00021,63.29,,,,,,,
293.26,0.00024,65.93,,,,,,,
293.29,0.00026,68.27,,,,,,,
293.33,0.00029,70.8,,,,,,,
293.36,0.00032,73.2,,,,,,,
293.39,0.00034,75.78,,,,,,,
293.43,0.00037,78.19,,,,,,,
293.46,0.00039,80.78,,,,,,,
293.49,0.00042,83.31,,,,,,,
293.51,0.00044,85.97,,,,,,,
293.54,0.00047,88.8,,,,,,,
293.56,0.00049,91.8,,,,,,,
293.58,0.00052,94.67,,,,,,,
293.6,0.00055,97.77,,,,,,,
293.62,0.00057,100.59,,,,,,,
293.63,0.0006,103.27,,,,,,,
293.65,0.00062,106.17,,,,,,,
293.66,0.00065,109.02,,,,,,,
293.68,0.00067,111.74,,,,,,,
293.7,0.0007,114.37,,,,,,,
293.71,0.00073,116.89,,,,,,,
293.73,0.00075,119.45,,,,,,,
293.75,0.00078,121.87,,,,,,,
293.77,0.0008,124.2,,,,,,,
293.79,0.00083,126.46,,,,,,,
293.81,0.00085,128.63,,,,,,,
293.83,0.00088,130.92,,,,,,,
293.85,0.0009,132.99,,,,,,,
293.87,0.00093,134.98,,,,,,,
293.9,0.00096,137.07,,,,,,,
293.92,0.00098,138.99,,,,,,,
293.94,0.00101,140.79,,,,,,,
293.97,0.00103,142.73,,,,,,,
293.99,0.00106,144.6,,,,,,,
294.02,0.00108,146.27,,,,,,,
294.04,0.00111,148.03,,,,,,,
294.07,0.00113,149.79,,,,,,,
294.09,0.00116,151.49,,,,,,,
294.12,0.00119,153.29,,,,,,,
294.15,0.00121,155.03,,,,,,,
294.17,0.00124,156.64,,,,,,,
294.2,0.00126,158.24,,,,,,,
294.22,0.00129,159.86,,,,,,,
294.24,0.00131,161.42,,,,,,,
294.27,0.00134,162.86,,,,,,,
294.29,0.00136,164.31,,,,,,,
294.32,0.00139,165.68,,,,,,,
294.34,0.00142,166.85,,,,,,,
294.37,0.00144,167.33,,,,,,,
294.43,0.00147,164.38,,,,,,,
294.49,0.00144,155.03,,,,,,,
294.52,0.00141,149.17,,,,,,,
294.54,0.00139,144.37,,,,,,,
294.57,0.00136,139.68,,,,,,,
294.59,0.00134,135.06,,,,,,,
294.61,0.00131,130.94,,,,,,,
294.63,0.00129,126.68,,,,,,,
294.65,0.00126,122.61,,,,,,,
294.67,0.00124,118.52,,,,,,,
294.69,0.00121,114.66,,,,,,,
294.71,0.00118,110.72,,,,,,,
294.74,0.00116,106.83,,,,,,,
294.76,0.00113,103.08,,,,,,,
294.79,0.00111,99.27,,,,,,,
294.81,0.00108,95.61,,,,,,,
294.84,0.00106,91.95,,,,,,,
294.87,0.00103,88.4,,,,,,,
294.89,0.00101,84.6,,,,,,,
294.92,0.00098,81.06,,,,,,,
294.95,0.00096,77.53,,,,,,,
294.98,0.00093,73.68,,,,,,,
295.01,0.00091,70.21,,,,,,,
295.03,0.00088,66.77,,,,,,,
295.06,0.00085,63.04,,,,,,,
295.09,0.00083,59.6,,,,,,,
295.12,0.0008,56.09,,,,,,,
295.14,0.00078,52.56,,,,,,,
295.17,0.00075,48.95,,,,,,,
295.2,0.00073,45.55,,,,,,,
295.23,0.0007,42.17,,,,,,,
295.26,0.00068,38.55,,,,,,,
295.28,0.00065,35.1,,,,,,,
295.31,0.00063,31.67,,,,,,,
295.34,0.0006,28.09,,,,,,,
295.36,0.00057,24.86,,,,,,,
295.39,0.00055,21.42,,,,,,,
295.42,0.00052,17.88,,,,,,,
295.45,0.0005,14.53,,,,,,,
295.47,0.00047,11.38,,,,,,,
295.5,0.00045,7.99,,,,,,,
295.53,0.00042,4.71,,,,,,,
295.56,0.0004,1.5,,,,,,,
295.59,0.00037,-1.7,,,,,,,
295.61,0.00035,-5.03,,,,,,,
295.64,0.00032,-8.23,,,,,,,
295.67,0.00029,-11.29,,,,,,,
295.7,0.00027,-14.45,,,,,,,
295.73,0.00024,-17.18,,,,,,,
295.83,0.00022,-18.62,,,,,,,
295.9,0.00019,-21.76,,,,,,,
295.94,0.00017,-24.9,,,,,,,
295.97,0.00014,-27.96,,,,,,,
296.01,0.00012,-30.98,,,,,,,
296.04,9e-05,-34.37,,,,,,,
296.07,7e-05,-37.63,,,,,,,
296.09,4e-05,-40.95,,,,,,,
296.11,1e-05,-44.24,,,,,,,
296.13,-1e-05,-47.78,,,,,,,
296.15,-4e-05,-51.3,,,,,,,
296.16,-6e-05,-54.64,,,,,,,
296.18,-9e-05,-57.8,,,,,,,
296.2,-0.00012,-60.82,,,,,,,
296.21,-0.00014,-64.04,,,,,,,
296.23,-0.00017,-67.12,,,,,,,
296.24,-0.00019,-70.39,,,,,,,
296.26,-0.00022,-73.52,,,,,,,
296.27,-0.00025,-76.36,,,,,,,
296.29,-0.00027,-79.59,,,,,,,
296.31,-0.0003,-82.64,,,,,,,
296.32,-0.00033,-85.44,,,,,,,
296.34,-0.00035,-88.17,,,,,,,
296.35,-0.00038,-91.06,,,,,,,
296.37,-0.0004,-93.73,,,,,,,
296.39,-0.00043,-96.36,,,,,,,
296.41,-0.00045,-98.93,,,,,,,
296.43,-0.00048,-101.4,,,,,,,
296.45,-0.00051,-104.1,,,,,,,
296.47,-0.00053,-106.4,,,,,,,
296.49,-0.00056,-108.7,,,,,,,
296.51,-0.00058,-111.1,,,,,,,
296.54,-0.00061,-113.4,,,,,,,
296.56,-0.00063,-115.7,,,,,,,
296.58,-0.00066,-118.0,,,,,,,
296.61,-0.00068,-120.3,,,,,,,
296.64,-0.00071,-122.5,,,,,,,
296.66,-0.00073,-124.6,,,,,,,
296.69,-0.00076,-127.0,,,,,,,
296.72,-0.00079,-129.3,,,,,,,
296.74,-0.00081,-131.5,,,,,,,
296.77,-0.00084,-133.8,,,,,,,
296.8,-0.00086,-136.1,,,,,,,
296.83,-0.00089,-138.5,,,,,,,
296.85,-0.00091,-140.7,,,,,,,
296.88,-0.00094,-143.0,,,,,,,
296.91,-0.00096,-145.2,,,,,,,
296.93,-0.00099,-147.4,,,,,,,
296.96,-0.00102,-149.6,,,,,,,
296.98,-0.00104,-151.8,,,,,,,
297.01,-0.00107,-153.8,,,,,,,
297.03,-0.00109,-155.9,,,,,,,
297.06,-0.00112,-157.9,,,,,,,
297.08,-0.00114,-160.0,,,,,,,
297.11,-0.00117,-161.9,,,,,,,
297.14,-0.00119,-163.8,,,,,,,
297.16,-0.00122,-165.5,,,,,,,
297.19,-0.00124,-167.3,,,,,,,
297.21,-0.00127,-169.1,,,,,,,
297.24,-0.0013,-170.8,,,,,,,
297.27,-0.00132,-172.4,,,,,,,
297.3,-0.00135,-173.8,,,,,,,
297.33,-0.00137,-175.3,,,,,,,
297.35,-0.0014,-176.3,,,,,,,
297.39,-0.00142,-176.8,,,,,,,
297.44,-0.00145,-175.2,,,,,,,
297.53,-0.00142,-163.2,,,,,,,
297.57,-0.0014,-156.7,,,,,,,
297.59,-0.00137,-151.6,,,,,,,
297.61,-0.00135,-146.9,,,,,,,
297.63,-0.00132,-142.5,,,,,,,
297.64,-0.0013,-138.5,,,,,,,
297.66,-0.00127,-134.4,,,,,,,
297.68,-0.00124,-130.4,,,,,,,
297.7,-0.00122,-126.5,,,,,,,
297.71,-0.00119,-122.6,,,,,,,
297.73,-0.00117,-118.8,,,,,,,
297.75,-0.00114,-115.0,,,,,,,
297.77,-0.00112,-111.5,,,,,,,
297.8,-0.00109,-107.9,,,,,,,
297.82,-0.00106,-104.2,,,,,,,
297.85,-0.00104,-100.7,,,,,,,
297.87,-0.00101,-97.07,,,,,,,
297.9,-0.00099,-93.4,,,,,,,
297.93,-0.00096,-89.67,,,,,,,
297.96,-0.00094,-86.07,,,,,,,
297.99,-0.00091,-82.38,,,,,,,
298.01,-0.00089,-78.82,,,,,,,
298.04,-0.00086,-75.25,,,,,,,
298.07,-0.00084,-71.57,,,,,,,
298.1,-0.00081,-68.06,,,,,,,
298.13,-0.00078,-64.57,,,,,,,
298.16,-0.00076,-60.93,,,,,,,
298.18,-0.00073,-57.36,,,,,,,
298.21,-0.00071,-53.85,,,,,,,
298.24,-0.00068,-50.52,,,,,,,
298.26,-0.00066,-46.84,,,,,,,
298.29,-0.00063,-43.63,,,,,,,
298.32,-0.00061,-40.3,,,,,,,
298.34,-0.00058,-36.95,,,,,,,
298.37,-0.00056,-33.62,,,,,,,
298.4,-0.00053,-30.23,,,,,,,
298.42,-0.0005,-27.03,,,,,,,
298.45,-0.00048,-23.57,,,,,,,
298.48,-0.00045,-20.27,,,,,,,
298.51,-0.00043,-17.12,,,,,,,
298.53,-0.0004,-13.77,,,,,,,
298.56,-0.00038,-10.53,,,,,,,
298.59,-0.00035,-7.22,,,,,,,
298.62,-0.00033,-3.79,,,,,,,
298.65,-0.0003,-0.54,,,,,,,
298.67,-0.00027,2.81,,,,,,,
298.7,-0.00025,5.95,,,,,,,
298.73,-0.00022,9.3,,,,,,,
298.76,-0.0002,12.51,,,,,,,
298.78,-0.00017,15.81,,,,,,,
593.24,-0.00017,28.03,,,,,,,
593.31,-0.00015,31.14,,,,,,,
593.38,-0.00012,34.28,,,,,,,
593.42,-0.0001,37.5,,,,,,,
593.46,-7e-05,40.68,,,,,,,
593.49,-5e-05,44.42,,,,,,,
593.51,-2e-05,48.38,,,,,,,
593.52,1e-05,51.58,,,,,,,
593.54,3e-05,54.7,,,,,,,
593.55,6e-05,57.7,,,,,,,
593.57,8e-05,60.83,,,,,,,
593.59,0.00011,63.75,,,,,,,
593.61,0.00013,66.58,,,,,,,
593.63,0.00016,69.16,,,,,,,
593.66,0.00019,71.63,,,,,,,
593.68,0.00021,74.08,,,,,,,
593.72,0.00024,76.55,,,,,,,
593.75,0.00026,78.91,,,,,,,
593.78,0.00029,81.42,,,,,,,
593.82,0.00031,84.06,,,,,,,
593.85,0.00034,86.76,,,,,,,
593.87,0.00036,89.73,,,,,,,
593.89,0.00039,92.67,,,,,,,
593.91,0.00041,95.61,,,,,,,
593.93,0.00044,98.46,,,,,,,
593.94,0.00046,101.27,,,,,,,
593.96,0.00049,104.09,,,,,,,
593.97,0.00052,106.89,,,,,,,
593.99,0.00054,109.88,,,,,,,
594.01,0.00057,112.71,,,,,,,
594.03,0.00059,115.48,,,,,,,
594.05,0.00062,118.09,,,,,,,
594.06,0.00065,120.8,,,,,,,
594.08,0.00067,123.19,,,,,,,
594.1,0.0007,125.53,,,,,,,
594.12,0.00072,127.75,,,,,,,
594.14,0.00075,129.89,,,,,,,
594.16,0.00077,132.21,,,,,,,
594.18,0.0008,134.28,,,,,,,
594.2,0.00082,136.38,,,,,,,
594.23,0.00085,138.29,,,,,,,
594.25,0.00087,140.2,,,,,,,
594.27,0.0009,142.15,,,,,,,
594.3,0.00093,144.08,,,,,,,
594.33,0.00095,145.99,,,,,,,
594.35,0.00098,147.81,,,,,,,
594.38,0.001,149.57,,,,,,,
594.4,0.00103,151.3,,,,,,,
594.43,0.00105,153.04,,,,,,,
594.45,0.00108,154.65,,,,,,,
594.47,0.0011,156.26,,,,,,,
594.5,0.00113,157.92,,,,,,,
594.52,0.00115,159.48,,,,,,,
594.55,0.00118,160.98,,,,,,,
594.57,0.0012,162.42,,,,,,,
594.6,0.00123,163.84,,,,,,,
594.62,0.00126,165.34,,,,,,,
594.65,0.00128,166.8,,,,,,,
594.67,0.00131,168.13,,,,,,,
594.7,0.00133,169.37,,,,,,,
594.72,0.00136,170.63,,,,,,,
594.75,0.00138,171.89,,,,,,,
594.77,0.00141,173.01,,,,,,,
594.8,0.00143,173.69,,,,,,,
594.83,0.00146,173.08,,,,,,,
594.95,0.00143,156.84,,,,,,,
594.97,0.00141,151.29,,,,,,,
595.0,0.00138,146.72,,,,,,,
595.02,0.00136,142.14,,,,,,,
595.04,0.00133,137.53,,,,,,,
595.06,0.00131,133.51,,,,,,,
595.07,0.00128,129.39,,,,,,,
595.1,0.00126,125.36,,,,,,,
595.12,0.00123,121.43,,,,,,,
595.14,0.0012,117.46,,,,,,,
595.16,0.00118,113.44,,,,,,,
595.18,0.00115,109.65,,,,,,,
595.21,0.00113,105.85,,,,,,,
595.23,0.0011,101.98,,,,,,,
595.26,0.00108,98.12,,,,,,,
595.29,0.00105,94.36,,,,,,,
595.32,0.00103,90.57,,,,,,,
595.35,0.001,86.83,,,,,,,
595.37,0.00098,83.21,,,,,,,
595.4,0.00095,79.48,,,,,,,
595.43,0.00092,75.65,,,,,,,
595.46,0.0009,71.91,,,,,,,
595.49,0.00087,68.14,,,,,,,
595.52,0.00085,64.35,,,,,,,
595.54,0.00082,60.67,,,,,,,
595.57,0.0008,57.1,,,,,,,
595.6,0.00077,53.5,,,,,,,
595.63,0.00075,49.6,,,,,,,
595.66,0.00072,45.76,,,,,,,
595.68,0.0007,42.18,,,,,,,
595.71,0.00067,38.41,,,,,,,
595.74,0.00065,34.97,,,,,,,
595.76,0.00062,31.5,,,,,,,
595.79,0.00059,27.89,,,,,,,
595.82,0.00057,24.76,,,,,,,
595.84,0.00054,21.41,,,,,,,
595.87,0.00052,17.81,,,,,,,
595.9,0.00049,14.33,,,,,,,
595.93,0.00047,10.71,,,,,,,
595.96,0.00044,7.14,,,,,,,
595.99,0.00042,3.65,,,,,,,
596.01,0.00039,0.15,,,,,,,
596.04,0.00037,-3.65,,,,,,,
596.07,0.00034,-7.28,,,,,,,
596.1,0.00032,-10.6,,,,,,,
596.13,0.00029,-13.9,,,,,,,
596.16,0.00027,-16.93,,,,,,,
596.19,0.00024,-19.25,,,,,,,
596.33,0.00021,-21.79,,,,,,,
596.37,0.00019,-25.23,,,,,,,
596.41,0.00016,-28.72,,,,,,,
596.45,0.00014,-31.77,,,,,,,
596.48,0.00011,-35.15,,,,,,,
596.51,9e-05,-38.38,,,,,,,
596.53,6e-05,-41.74,,,,,,,
596.55,4e-05,-44.99,,,,,,,
596.56,1e-05,-48.21,,,,,,,
596.58,-2e-05,-51.87,,,,,,,
596.59,-4e-05,-54.97,,,,,,,
596.61,-7e-05,-57.87,,,,,,,
596.62,-9e-05,-60.74,,,,,,,
596.64,-0.00012,-63.66,,,,,,,
596.65,-0.00014,-66.67,,,,,,,
596.66,-0.00017,-69.32,,,,,,,
596.68,-0.00019,-72.17,,,,,,,
596.69,-0.00022,-74.93,,,,,,,
596.71,-0.00025,-77.77,,,,,,,
596.72,-0.00027,-80.51,,,,,,,
596.73,-0.0003,-83.22,,,,,,,
596.75,-0.00032,-85.91,,,,,,,
596.77,-0.00035,-88.46,,,,,,,
596.78,-0.00038,-91.0,,,,,,,
596.8,-0.0004,-93.47,,,,,,,
596.82,-0.00043,-95.86,,,,,,,
596.84,-0.00045,-98.35,,,,,,,
596.86,-0.00048,-100.6,,,,,,,
596.88,-0.0005,-102.8,,,,,,,
596.9,-0.00053,-105.2,,,,,,,
596.92,-0.00056,-107.3,,,,,,,
596.94,-0.00058,-109.4,,,,,,,
596.97,-0.00061,-111.4,,,,,,,
596.99,-0.00063,-113.3,,,,,,,
597.01,-0.00066,-115.4,,,,,,,
597.04,-0.00068,-117.2,,,,,,,
597.07,-0.00071,-119.3,,,,,,,
597.09,-0.00073,-121.3,,,,,,,
597.12,-0.00076,-123.1,,,,,,,
597.14,-0.00078,-125.0,,,,,,,
597.17,-0.00081,-126.9,,,,,,,
597.19,-0.00084,-128.7,,,,,,,
597.22,-0.00086,-130.6,,,,,,,
597.25,-0.00089,-132.6,,,,,,,
597.28,-0.00091,-134.4,,,,,,,
597.31,-0.00094,-136.5,,,,,,,
597.33,-0.00096,-138.5,,,,,,,
597.36,-0.00099,-140.4,,,,,,,
597.39,-0.00101,-142.3,,,,,,,
597.41,-0.00104,-144.0,,,,,,,
597.44,-0.00106,-145.9,,,,,,,
597.46,-0.00109,-147.7,,,,,,,
597.49,-0.00112,-149.5,,,,,,,
597.51,-0.00114,-151.1,,,,,,,
597.54,-0.00117,-152.8,,,,,,,
597.56,-0.00119,-154.5,,,,,,,
597.59,-0.00122,-156.1,,,,,,,
597.61,-0.00124,-157.6,,,,,,,
597.64,-0.00127,-159.2,,,,,,,
597.66,-0.00129,-160.7,,,,,,,
597.68,-0.00132,-162.1,,,,,,,
597.71,-0.00134,-163.6,,,,,,,
597.73,-0.00137,-164.9,,,,,,,
597.76,-0.00139,-166.2,,,,,,,
597.79,-0.00142,-167.3,,,,,,,
597.82,-0.00145,-167.6,,,,,,,
597.88,-0.00147,-164.7,,,,,,,
597.95,-0.00144,-154.6,,,,,,,
597.97,-0.00142,-149.0,,,,,,,
598.0,-0.00139,-143.9,,,,,,,
598.02,-0.00137,-139.2,,,,,,,
598.04,-0.00134,-134.5,,,,,,,
598.06,-0.00132,-130.2,,,,,,,
598.08,-0.00129,-125.9,,,,,,,
598.1,-0.00127,-121.7,,,,,,,
598.12,-0.00124,-117.5,,,,,,,
598.14,-0.00122,-113.3,,,,,,,
598.16,-0.00119,-109.2,,,,,,,
598.18,-0.00116,-105.1,,,,,,,
598.21,-0.00114,-101.0,,,,,,,
598.23,-0.00111,-97.27,,,,,,,
598.26,-0.00109,-93.14,,,,,,,
598.28,-0.00106,-89.18,,,,,,,
598.31,-0.00104,-85.18,,,,,,,
598.34,-0.00101,-81.46,,,,,,,
598.37,-0.00098,-77.55,,,,,,,
598.39,-0.00096,-73.92,,,,,,,
598.42,-0.00093,-70.34,,,,,,,
598.45,-0.00091,-66.44,,,,,,,
598.47,-0.00088,-62.92,,,,,,,
598.5,-0.00086,-59.41,,,,,,,
598.53,-0.00083,-55.8,,,,,,,
598.56,-0.00081,-52.25,,,,,,,
598.58,-0.00078,-48.69,,,,,,,
598.61,-0.00076,-45.16,,,,,,,
598.64,-0.00073,-41.65,,,,,,,
598.66,-0.0007,-38.4,,,,,,,
598.69,-0.00068,-34.74,,,,,,,
598.72,-0.00065,-31.45,,,,,,,
598.74,-0.00063,-28.11,,,,,,,
598.77,-0.0006,-24.58,,,,,,,
598.8,-0.00058,-21.21,,,,,,,
598.83,-0.00055,-17.98,,,,,,,
598.85,-0.00053,-14.7,,,,,,,
598.88,-0.0005,-11.05,,,,,,,
598.91,-0.00048,-7.76,,,,,,,
598.94,-0.00045,-4.45,,,,,,,
598.96,-0.00042,-1.07,,,,,,,
598.99,-0.0004,2.24,,,,,,,
599.02,-0.00037,5.35,,,,,,,
599.04,-0.00035,8.64,,,,,,,
599.07,-0.00032,11.93,,,,,,,
599.1,-0.0003,15.0,,,,,,,
599.12,-0.00027,18.06,,,,,,,
599.15,-0.00025,21.31,,,,,,,
599.18,-0.00022,24.12,,,,,,,
599.21,-0.00019,26.75,,,,,,,
1194.12,-0.0002,31.44,,,,,,,
1194.17,-0.00017,33.58,,,,,,,
1194.22,-0.00014,36.22,,,,,,,
1194.26,-0.00012,39.29,,,,,,,
1194.29,-9e-05,43.54,,,,,,,
1194.3,-7e-05,46.44,,,,,,,
1194.32,-4e-05,49.61,,,,,,,
1194.34,-2e-05,52.76,,,,,,,
1194.36,1e-05,55.79,,,,,,,
1194.38,3e-05,58.26,,,,,,,
1194.4,6e-05,60.88,,,,,,,
1194.42,9e-05,63.45,,,,,,,
1194.45,0.00011,65.63,,,,,,,
1194.47,0.00014,67.83,,,,,,,
1194.5,0.00016,69.86,,,,,,,
1194.53,0.00019,71.72,,,,,,,
1194.56,0.00021,73.71,,,,,,,
1194.6,0.00024,75.93,,,,,,,
1194.63,0.00026,78.21,,,,,,,
1194.66,0.00029,80.54,,,,,,,
1194.69,0.00031,82.81,,,,,,,
1194.71,0.00034,85.31,,,,,,,
1194.73,0.00037,88.1,,,,,,,
1194.75,0.00039,90.77,,,,,,,
1194.77,0.00042,93.23,,,,,,,
1194.78,0.00044,95.77,,,,,,,
1194.8,0.00047,98.29,,,,,,,
1194.82,0.00049,100.83,,,,,,,
1194.83,0.00052,103.17,,,,,,,
1194.85,0.00054,105.6,,,,,,,
1194.87,0.00057,108.02,,,,,,,
1194.88,0.00059,110.24,,,,,,,
1194.9,0.00062,112.47,,,,,,,
1194.92,0.00065,114.49,,,,,,,
1194.94,0.00067,116.4,,,,,,,
1194.95,0.0007,118.28,,,,,,,
1194.97,0.00072,120.09,,,,,,,
1194.99,0.00075,121.77,,,,,,,
1195.01,0.00077,123.48,,,,,,,
1195.04,0.0008,124.96,,,,,,,
1195.06,0.00082,126.46,,,,,,,
1195.08,0.00085,127.89,,,,,,,
1195.11,0.00088,129.22,,,,,,,
1195.13,0.0009,130.61,,,,,,,
1195.16,0.00093,131.87,,,,,,,
1195.18,0.00095,133.23,,,,,,,
1195.21,0.00098,134.52,,,,,,,
1195.23,0.001,135.81,,,,,,,
1195.26,0.00103,137.04,,,,,,,
1195.28,0.00105,138.3,,,,,,,
1195.31,0.00108,139.55,,,,,,,
1195.33,0.0011,140.85,,,,,,,
1195.36,0.00113,142.29,,,,,,,
1195.39,0.00115,143.48,,,,,,,
1195.41,0.00118,144.67,,,,,,,
1195.43,0.00121,145.87,,,,,,,
1195.46,0.00123,147.06,,,,,,,
1195.49,0.00126,148.23,,,,,,,
1195.51,0.00128,149.44,,,,,,,
1195.54,0.00131,150.63,,,,,,,
1195.56,0.00133,151.83,,,,,,,
1195.59,0.00136,153.11,,,,,,,
1195.62,0.00138,154.29,,,,,,,
1195.64,0.00141,155.44,,,,,,,
1195.67,0.00144,156.23,,,,,,,
1195.7,0.00146,156.15,,,,,,,
1195.83,0.00143,140.64,,,,,,,
1195.85,0.00141,135.9,,,,,,,
1195.87,0.00138,131.44,,,,,,,
1195.89,0.00136,127.15,,,,,,,
1195.91,0.00133,122.78,,,,,,,
1195.93,0.00131,118.58,,,,,,,
1195.96,0.00128,114.21,,,,,,,
1195.98,0.00126,109.92,,,,,,,
1196.0,0.00123,105.86,,,,,,,
1196.03,0.00121,101.88,,,,,,,
1196.05,0.00118,98.08,,,,,,,
1196.07,0.00115,94.23,,,,,,,
1196.1,0.00113,90.7,,,,,,,
1196.12,0.0011,87.16,,,,,,,
1196.15,0.00108,83.37,,,,,,,
1196.18,0.00105,79.73,,,,,,,
1196.2,0.00103,75.97,,,,,,,
1196.23,0.001,72.08,,,,,,,
1196.26,0.00098,68.52,,,,,,,
1196.29,0.00095,64.73,,,,,,,
1196.32,0.00093,60.88,,,,,,,
1196.35,0.0009,57.28,,,,,,,
1196.37,0.00087,53.65,,,,,,,
1196.4,0.00085,49.78,,,,,,,
1196.43,0.00082,46.27,,,,,,,
1196.46,0.0008,42.42,,,,,,,
1196.49,0.00077,38.55,,,,,,,
1196.52,0.00075,34.79,,,,,,,
1196.55,0.00072,31.1,,,,,,,
1196.57,0.0007,27.33,,,,,,,
1196.6,0.00067,23.61,,,,,,,
1196.63,0.00065,20.03,,,,,,,
1196.66,0.00062,16.25,,,,,,,
1196.69,0.00059,12.61,,,,,,,
1196.72,0.00057,8.9,,,,,,,
1196.74,0.00054,5.28,,,,,,,
1196.77,0.00052,1.79,,,,,,,
1196.8,0.00049,-1.67,,,,,,,
1196.82,0.00047,-5.19,,,,,,,
1196.85,0.00044,-8.55,,,,,,,
1196.88,0.00042,-11.9,,,,,,,
1196.91,0.00039,-15.19,,,,,,,
1196.94,0.00037,-18.04,,,,,,,
1197.05,0.00034,-20.07,,,,,,,
1197.11,0.00031,-23.51,,,,,,,
1197.15,0.00029,-26.87,,,,,,,
1197.19,0.00026,-29.82,,,,,,,
1197.22,0.00024,-32.66,,,,,,,
1197.26,0.00021,-36.2,,,,,,,
1197.28,0.00019,-39.73,,,,,,,
1197.3,0.00016,-42.77,,,,,,,
1197.32,0.00014,-46.05,,,,,,,
1197.34,0.00011,-49.86,,,,,,,
1197.35,8e-05,-53.22,,,,,,,
1197.37,6e-05,-56.34,,,,,,,
1197.39,3e-05,-59.63,,,,,,,
1197.4,1e-05,-62.58,,,,,,,
1197.42,-2e-05,-65.86,,,,,,,
1197.43,-5e-05,-69.16,,,,,,,
1197.44,-7e-05,-72.12,,,,,,,
1197.46,-0.0001,-75.1,,,,,,,
1197.47,-0.00012,-78.09,,,,,,,
1197.49,-0.00015,-81.39,,,,,,,
1197.51,-0.00017,-84.55,,,,,,,
1197.52,-0.0002,-87.62,,,,,,,
1197.54,-0.00023,-90.52,,,,,,,
1197.56,-0.00025,-93.22,,,,,,,
1197.57,-0.00028,-95.84,,,,,,,
1197.59,-0.0003,-98.53,,,,,,,
1197.61,-0.00033,-101.0,,,,,,,
1197.63,-0.00035,-103.8,,,,,,,
1197.65,-0.00038,-106.3,,,,,,,
1197.67,-0.00041,-108.9,,,,,,,
1197.69,-0.00043,-111.4,,,,,,,
1197.72,-0.00046,-113.9,,,,,,,
1197.74,-0.00048,-116.3,,,,,,,
1197.76,-0.00051,-118.3,,,,,,,
1197.78,-0.00053,-120.3,,,,,,,
1197.8,-0.00056,-122.3,,,,,,,
1197.83,-0.00059,-124.4,,,,,,,
1197.85,-0.00061,-126.6,,,,,,,
1197.88,-0.00064,-128.5,,,,,,,
1197.9,-0.00066,-130.3,,,,,,,
1197.93,-0.00069,-132.1,,,,,,,
1197.95,-0.00071,-134.0,,,,,,,
1197.98,-0.00074,-135.7,,,,,,,
1198.01,-0.00076,-137.6,,,,,,,
1198.03,-0.00079,-139.3,,,,,,,
1198.06,-0.00081,-141.0,,,,,,,
1198.08,-0.00084,-142.6,,,,,,,
1198.11,-0.00087,-144.3,,,,,,,
1198.14,-0.00089,-146.0,,,,,,,
1198.16,-0.00092,-147.6,,,,,,,
1198.19,-0.00094,-149.2,,,,,,,
1198.21,-0.00097,-150.8,,,,,,,
1198.24,-0.00099,-152.3,,,,,,,
1198.26,-0.00102,-153.9,,,,,,,
1198.29,-0.00104,-155.5,,,,,,,
1198.32,-0.00107,-157.0,,,,,,,
1198.34,-0.0011,-158.5,,,,,,,
1198.37,-0.00112,-160.0,,,,,,,
1198.39,-0.00115,-161.4,,,,,,,
1198.42,-0.00117,-162.8,,,,,,,
1198.44,-0.0012,-164.1,,,,,,,
1198.47,-0.00122,-165.3,,,,,,,
1198.49,-0.00125,-166.5,,,,,,,
1198.52,-0.00127,-167.5,,,,,,,
1198.54,-0.0013,-168.6,,,,,,,
1198.56,-0.00133,-169.4,,,,,,,
1198.59,-0.00135,-170.3,,,,,,,
1198.61,-0.00138,-171.1,,,,,,,
1198.64,-0.0014,-171.8,,,,,,,
1198.66,-0.00143,-172.2,,,,,,,
1198.69,-0.00145,-172.4,,,,,,,
1198.72,-0.00148,-171.4,,,,,,,
1198.85,-0.00145,-150.8,,,,,,,
1198.88,-0.00143,-145.5,,,,,,,
1198.89,-0.0014,-140.5,,,,,,,
1198.91,-0.00138,-135.8,,,,,,,
1198.93,-0.00135,-131.5,,,,,,,
1198.94,-0.00133,-127.3,,,,,,,
1198.96,-0.0013,-123.1,,,,,,,
1198.98,-0.00127,-119.1,,,,,,,
1199.0,-0.00125,-115.2,,,,,,,
1199.01,-0.00122,-111.4,,,,,,,
1199.03,-0.0012,-107.8,,,,,,,
1199.05,-0.00117,-104.0,,,,,,,
1199.07,-0.00114,-100.0,,,,,,,
1199.1,-0.00112,-96.48,,,,,,,
1199.12,-0.00109,-92.69,,,,,,,
1199.15,-0.00107,-88.91,,,,,,,
1199.17,-0.00104,-85.46,,,,,,,
1199.2,-0.00102,-81.82,,,,,,,
1199.23,-0.00099,-78.08,,,,,,,
1199.26,-0.00097,-74.59,,,,,,,
1199.28,-0.00094,-71.2,,,,,,,
1199.31,-0.00092,-67.78,,,,,,,
1199.34,-0.00089,-64.22,,,,,,,
1199.37,-0.00086,-60.72,,,,,,,
1199.4,-0.00084,-57.04,,,,,,,
1199.42,-0.00081,-53.48,,,,,,,
1199.45,-0.00079,-50.06,,,,,,,
1199.48,-0.00076,-46.51,,,,,,,
1199.5,-0.00074,-43.29,,,,,,,
1199.53,-0.00071,-40.04,,,,,,,
1199.56,-0.00069,-36.75,,,,,,,
1199.58,-0.00066,-33.48,,,,,,,
1199.61,-0.00064,-30.44,,,,,,,
1199.63,-0.00061,-27.39,,,,,,,
1199.66,-0.00059,-23.95,,,,,,,
1199.69,-0.00056,-20.71,,,,,,,
1199.72,-0.00053,-17.38,,,,,,,
1199.75,-0.00051,-14.08,,,,,,,
1199.77,-0.00048,-10.7,,,,,,,
1199.8,-0.00046,-7.49,,,,,,,
1199.83,-0.00043,-4.29,,,,,,,
1199.83,-0.00043,-3.72,,,,,,,
1199.86,-0.00041,-0.87,,,,,,,
1199.89,-0.00038,2.33,,,,,,,
1199.91,-0.00036,5.65,,,,,,,
1199.94,-0.00033,9.04,,,,,,,
1199.97,-0.0003,11.99,,,,,,,
1199.99,-0.00028,15.03,,,,,,,
1200.02,-0.00025,18.14,,,,,,,
1200.05,-0.00023,21.26,,,,,,,
1200.08,-0.0002,24.23,,,,,,,
1200.11,-0.00018,26.72,,,,,,,
2996.76,-0.00015,21.87,,,,,,,
2996.79,-0.00013,24.76,,,,,,,
2996.83,-0.0001,27.4,,,,,,,
2996.88,-7e-05,29.85,,,,,,,
2996.95,-5e-05,32.32,,,,,,,
2997.0,-2e-05,35.31,,,,,,,
2997.04,0.0,38.36,,,,,,,
2997.07,3e-05,41.28,,,,,,,
2997.1,5e-05,44.89,,,,,,,
2997.12,8e-05,48.67,,,,,,,
2997.13,0.0001,51.7,,,,,,,
2997.15,0.00013,54.99,,,,,,,
2997.17,0.00016,58.13,,,,,,,
2997.18,0.00018,60.8,,,,,,,
2997.2,0.00021,63.6,,,,,,,
2997.22,0.00023,66.31,,,,,,,
2997.25,0.00026,68.81,,,,,,,
2997.27,0.00028,71.42,,,,,,,
2997.31,0.00031,73.83,,,,,,,
2997.34,0.00033,76.32,,,,,,,
2997.37,0.00036,78.72,,,,,,,
2997.4,0.00039,81.25,,,,,,,
2997.43,0.00041,83.82,,,,,,,
2997.46,0.00044,86.72,,,,,,,
2997.48,0.00046,89.61,,,,,,,
2997.5,0.00049,92.41,,,,,,,
2997.52,0.00051,95.25,,,,,,,
2997.53,0.00054,98.02,,,,,,,
2997.55,0.00057,100.91,,,,,,,
2997.57,0.00059,103.58,,,,,,,
2997.58,0.00062,106.25,,,,,,,
2997.6,0.00064,109.04,,,,,,,
2997.62,0.00067,111.48,,,,,,,
2997.64,0.00069,113.98,,,,,,,
2997.65,0.00072,116.55,,,,,,,
2997.67,0.00075,118.77,,,,,,,
2997.69,0.00077,121.24,,,,,,,
2997.71,0.0008,123.38,,,,,,,
2997.73,0.00082,125.56,,,,,,,
2997.75,0.00085,127.57,,,,,,,
2997.77,0.00087,129.7,,,,,,,
2997.8,0.0009,131.77,,,,,,,
2997.82,0.00093,133.63,,,,,,,
2997.85,0.00095,135.49,,,,,,,
2997.87,0.00098,137.31,,,,,,,
2997.89,0.001,139.07,,,,,,,
2997.92,0.00103,140.83,,,,,,,
2997.94,0.00105,142.61,,,,,,,
2997.97,0.00108,144.28,,,,,,,
2997.99,0.0011,145.9,,,,,,,
2998.02,0.00113,147.57,,,,,,,
2998.04,0.00116,149.23,,,,,,,
2998.07,0.00118,150.8,,,,,,,
2998.09,0.00121,152.38,,,,,,,
2998.12,0.00123,153.94,,,,,,,
2998.14,0.00126,155.49,,,,,,,
2998.17,0.00128,157.0,,,,,,,
2998.2,0.00131,158.49,,,,,,,
2998.22,0.00133,159.92,,,,,,,
2998.25,0.00136,161.35,,,,,,,
2998.27,0.00139,162.7,,,,,,,
2998.29,0.00141,163.87,,,,,,,
2998.32,0.00144,164.59,,,,,,,
2998.37,0.00146,162.97,,,,,,,
2998.45,0.00144,152.22,,,,,,,
2998.48,0.00141,146.83,,,,,,,
2998.51,0.00138,142.1,,,,,,,
2998.53,0.00136,137.38,,,,,,,
2998.55,0.00133,133.15,,,,,,,
2998.57,0.00131,129.13,,,,,,,
2998.59,0.00128,125.09,,,,,,,
2998.61,0.00126,121.04,,,,,,,
2998.63,0.00123,117.2,,,,,,,
2998.65,0.00121,113.3,,,,,,,
2998.68,0.00118,109.6,,,,,,,
2998.7,0.00116,105.71,,,,,,,
2998.72,0.00113,102.08,,,,,,,
2998.75,0.0011,98.39,,,,,,,
2998.78,0.00108,94.6,,,,,,,
2998.8,0.00105,91.1,,,,,,,
2998.83,0.00103,87.36,,,,,,,
2998.86,0.001,83.58,,,,,,,
2998.89,0.00098,80.05,,,,,,,
2998.92,0.00095,76.49,,,,,,,
2998.95,0.00093,72.67,,,,,,,
2998.97,0.0009,69.34,,,,,,,
2999.0,0.00087,65.72,,,,,,,
2999.03,0.00085,62.09,,,,,,,
2999.06,0.00082,58.65,,,,,,,
2999.08,0.0008,55.27,,,,,,,
2999.11,0.00077,51.81,,,,,,,
2999.14,0.00075,48.2,,,,,,,
2999.17,0.00072,44.91,,,,,,,
2999.19,0.0007,41.45,,,,,,,
2999.22,0.00067,37.98,,,,,,,
2999.25,0.00065,34.66,,,,,,,
2999.27,0.00062,31.27,,,,,,,
2999.3,0.0006,27.87,,,,,,,
2999.33,0.00057,24.53,,,,,,,
2999.36,0.00054,21.14,,,,,,,
2999.38,0.00052,17.83,,,,,,,
2999.41,0.00049,14.67,,,,,,,
2999.44,0.00047,11.36,,,,,,,
2999.47,0.00044,8.28,,,,,,,
2999.49,0.00042,5.05,,,,,,,
2999.52,0.00039,1.9,,,,,,,
2999.55,0.00037,-1.21,,,,,,,
2999.57,0.00034,-4.37,,,,,,,
2999.6,0.00031,-7.41,,,,,,,
2999.63,0.00029,-10.39,,,,,,,
2999.66,0.00026,-13.38,,,,,,,
2999.69,0.00024,-16.17,,,,,,,
2999.77,0.00021,-17.74,,,,,,,
2999.83,0.0002,-19.2,,,,,,,
2999.86,0.00019,-20.82,,,,,,,
2999.91,0.00016,-24.15,,,,,,,
2999.94,0.00014,-27.26,,,,,,,
2999.98,0.00011,-30.51,,,,,,,
3000.02,9e-05,-33.96,,,,,,,
3000.04,6e-05,-37.34,,,,,,,
3000.06,4e-05,-40.78,,,,,,,
3000.09,1e-05,-44.19,,,,,,,
3000.11,-2e-05,-47.62,,,,,,,
3000.12,-4e-05,-51.4,,,,,,,
3000.14,-7e-05,-54.62,,,,,,,
3000.15,-9e-05,-57.82,,,,,,,
3000.17,-0.00012,-61.04,,,,,,,
3000.19,-0.00014,-64.49,,,,,,,
3000.2,-0.00017,-67.6,,,,,,,
3000.22,-0.0002,-71.0,,,,,,,
3000.23,-0.00022,-74.05,,,,,,,
3000.25,-0.00025,-77.02,,,,,,,
3000.26,-0.00027,-80.17,,,,,,,
3000.28,-0.0003,-83.1,,,,,,,
3000.29,-0.00033,-86.05,,,,,,,
3000.31,-0.00035,-88.81,,,,,,,
3000.32,-0.00038,-91.63,,,,,,,
3000.34,-0.0004,-94.44,,,,,,,
3000.36,-0.00043,-97.14,,,,,,,
3000.38,-0.00045,-99.83,,,,,,,
3000.4,-0.00048,-102.5,,,,,,,
3000.41,-0.00051,-105.0,,,,,,,
3000.44,-0.00053,-107.5,,,,,,,
3000.46,-0.00056,-109.8,,,,,,,
3000.48,-0.00058,-112.2,,,,,,,
3000.5,-0.00061,-114.4,,,,,,,
3000.53,-0.00063,-116.8,,,,,,,
3000.55,-0.00066,-119.1,,,,,,,
3000.57,-0.00068,-121.3,,,,,,,
3000.6,-0.00071,-123.5,,,,,,,
3000.63,-0.00073,-125.7,,,,,,,
3000.65,-0.00076,-127.9,,,,,,,
3000.68,-0.00079,-130.1,,,,,,,
3000.7,-0.00081,-132.2,,,,,,,
3000.73,-0.00084,-134.4,,,,,,,
3000.76,-0.00086,-136.5,,,,,,,
3000.78,-0.00089,-138.7,,,,,,,
3000.81,-0.00091,-141.0,,,,,,,
3000.84,-0.00094,-143.1,,,,,,,
3000.86,-0.00096,-145.2,,,,,,,
3000.89,-0.00099,-147.3,,,,,,,
3000.91,-0.00101,-149.4,,,,,,,
3000.94,-0.00104,-151.5,,,,,,,
3000.97,-0.00106,-153.5,,,,,,,
3000.99,-0.00109,-155.5,,,,,,,
3001.02,-0.00111,-157.5,,,,,,,
3001.04,-0.00114,-159.4,,,,,,,
3001.07,-0.00117,-161.3,,,,,,,
3001.09,-0.00119,-163.2,,,,,,,
3001.12,-0.00122,-164.9,,,,,,,
3001.14,-0.00124,-166.6,,,,,,,
3001.17,-0.00127,-168.3,,,,,,,
3001.2,-0.00129,-169.8,,,,,,,
3001.22,-0.00132,-171.3,,,,,,,
3001.25,-0.00134,-172.6,,,,,,,
3001.27,-0.00137,-173.8,,,,,,,
3001.3,-0.00139,-174.8,,,,,,,
3001.32,-0.00142,-165.8,,,,,,,
3001.32,-0.00145,-166.5,,,,,,,
3001.32,-0.00147,-166.5,,,,,,,
3001.33,-0.00151,-166.7,,,,,,,
3001.33,-0.00156,-166.8,,,,,,,
3001.33,-0.00162,-166.8,,,,,,,
3001.33,-0.00168,-166.8,,,,,,,
3001.33,-0.00175,-166.7,,,,,,,
3001.33,-0.00183,-166.6,,,,,,,
3001.33,-0.0019,-166.5,,,,,,,
3001.33,-0.00197,-166.5,,,,,,,
3001.33,-0.00203,-166.5,,,,,,,
3001.33,-0.00208,-166.6,,,,,,,
3001.34,-0.00212,-166.6,,,,,,,
3001.34,-0.00215,-166.6,,,,,,,
3001.34,-0.00211,-166.8,,,,,,,
3001.35,-0.00209,-166.5,,,,,,,
3001.36,-0.00211,-164.3,,,,,,,
3001.37,-0.00209,-158.2,,,,,,,
3001.39,-0.00206,-151.3,,,,,,,
3001.39,-0.00203,-146.3,,,,,,,
3001.4,-0.00201,-141.7,,,,,,,
3001.41,-0.00198,-137.5,,,,,,,
3001.41,-0.00196,-132.3,,,,,,,
3001.42,-0.00193,-127.9,,,,,,,
3001.43,-0.0019,-124.0,,,,,,,
3001.43,-0.00187,-119.4,,,,,,,
3001.44,-0.00185,-115.6,,,,,,,
3001.44,-0.00182,-111.8,,,,,,,
3001.45,-0.00179,-108.0,,,,,,,
3001.45,-0.00176,-104.2,,,,,,,
3001.46,-0.00174,-100.4,,,,,,,
3001.46,-0.00171,-96.93,,,,,,,
3001.47,-0.00169,-93.44,,,,,,,
3001.47,-0.00166,-89.9,,,,,,,
3001.48,-0.00163,-85.87,,,,,,,
3001.48,-0.0016,-81.97,,,,,,,
3001.49,-0.00157,-78.16,,,,,,,
3001.49,-0.00155,-74.54,,,,,,,
3001.5,-0.00152,-71.1,,,,,,,
3001.51,-0.00149,-67.72,,,,,,,
3001.51,-0.00147,-64.05,,,,,,,
3001.52,-0.00144,-60.6,,,,,,,
3001.53,-0.00141,-57.35,,,,,,,
3001.53,-0.00138,-53.98,,,,,,,
3001.54,-0.00136,-50.78,,,,,,,
3001.55,-0.00133,-47.59,,,,,,,
3001.56,-0.00131,-44.37,,,,,,,
3001.57,-0.00128,-41.24,,,,,,,
3001.58,-0.00126,-38.33,,,,,,,
3001.6,-0.00123,-35.18,,,,,,,
3001.61,-0.00121,-32.39,,,,,,,
3001.64,-0.00118,-29.28,,,,,,,
3001.67,-0.00115,-26.29,,,,,,,
3001.7,-0.00113,-23.38,,,,,,,
3001.75,-0.0011,-20.07,,,,,,,
3001.78,-0.00108,-17.05,,,,,,,
3001.82,-0.00105,-13.57,,,,,,,
3001.85,-0.00103,-10.26,,,,,,,
3001.88,-0.001,-6.87,,,,,,,
3001.91,-0.00098,-3.57,,,,,,,
3001.93,-0.00095,-0.36,,,,,,,
3001.96,-0.00093,2.92,,,,,,,
3001.99,-0.0009,6.08,,,,,,,
3002.01,-0.00087,9.41,,,,,,,
3002.04,-0.00085,12.54,,,,,,,
3002.07,-0.00082,15.67,,,,,,,
3002.09,-0.0008,18.75,,,,,,,
3002.12,-0.00077,21.91,,,,,,,
3002.15,-0.00075,24.77,,,,,,,
3002.18,-0.00072,27.28,,,,,,,
3002.23,-0.0007,29.69,,,,,,,
3002.3,-0.00067,31.94,,,,,,,
3002.36,-0.00065,35.26,,,,,,,
3002.4,-0.00062,38.32,,,,,,,
3002.43,-0.0006,41.4,,,,,,,
3002.46,-0.00057,45.57,,,,,,,
3002.48,-0.00054,48.98,,,,,,,
3002.49,-0.00052,52.28,,,,,,,
3002.51,-0.00049,55.41,,,,,,,
3002.52,-0.00047,58.25,,,,,,,
3002.54,-0.00044,61.12,,,,,,,
3002.56,-0.00042,64.02,,,,,,,
3002.58,-0.00039,66.75,,,,,,,
3002.61,-0.00037,69.32,,,,,,,
3002.64,-0.00034,71.94,,,,,,,
3002.66,-0.00031,74.26,,,,,,,
3002.7,-0.00029,76.82,,,,,,,
3002.73,-0.00026,79.26,,,,,,,
3002.76,-0.00024,81.77,,,,,,,
6001.18,-0.00016,27.94,,,,,,,
6001.24,-0.00013,30.15,,,,,,,
6001.31,-0.00011,33.07,,,,,,,
6001.35,-8e-05,35.92,,,,,,,
6001.38,-6e-05,38.85,,,,,,,
6001.42,-3e-05,41.87,,,,,,,
6001.45,-0.0,45.18,,,,,,,
6001.47,2e-05,48.59,,,,,,,
6001.48,5e-05,52.21,,,,,,,
6001.5,7e-05,55.25,,,,,,,
6001.52,0.0001,58.46,,,,,,,
6001.53,0.00012,61.33,,,,,,,
6001.55,0.00015,64.17,,,,,,,
6001.57,0.00018,66.96,,,,,,,
6001.59,0.0002,69.46,,,,,,,
6001.62,0.00023,71.92,,,,,,,
6001.64,0.00025,74.39,,,,,,,
6001.67,0.00028,76.72,,,,,,,
6001.7,0.0003,79.06,,,,,,,
6001.73,0.00033,81.41,,,,,,,
6001.76,0.00035,83.91,,,,,,,
6001.79,0.00038,86.85,,,,,,,
6001.81,0.0004,89.62,,,,,,,
6001.83,0.00043,92.38,,,,,,,
6001.85,0.00046,95.29,,,,,,,
6001.86,0.00048,98.18,,,,,,,
6001.88,0.00051,100.99,,,,,,,
6001.9,0.00054,103.57,,,,,,,
6001.91,0.00056,106.27,,,,,,,
6001.93,0.00059,108.73,,,,,,,
6001.95,0.00061,111.08,,,,,,,
6001.97,0.00064,113.55,,,,,,,
6001.98,0.00066,115.91,,,,,,,
6002.0,0.00069,118.14,,,,,,,
6002.02,0.00071,120.38,,,,,,,
6002.04,0.00074,122.6,,,,,,,
6002.06,0.00077,124.6,,,,,,,
6002.09,0.00079,126.56,,,,,,,
6002.11,0.00082,128.47,,,,,,,
6002.13,0.00084,130.31,,,,,,,
6002.16,0.00087,132.21,,,,,,,
6002.18,0.00089,134.06,,,,,,,
6002.21,0.00092,135.83,,,,,,,
6002.23,0.00094,137.66,,,,,,,
6002.26,0.00097,139.46,,,,,,,
6002.29,0.001,141.31,,,,,,,
6002.31,0.00102,143.25,,,,,,,
6002.34,0.00105,145.08,,,,,,,
6002.37,0.00107,146.84,,,,,,,
6002.39,0.0011,148.54,,,,,,,
6002.41,0.00112,150.15,,,,,,,
6002.44,0.00115,151.73,,,,,,,
6002.46,0.00117,153.52,,,,,,,
6002.49,0.0012,155.19,,,,,,,
6002.51,0.00122,156.77,,,,,,,
6002.54,0.00125,158.27,,,,,,,
6002.56,0.00127,159.74,,,,,,,
6002.59,0.0013,161.2,,,,,,,
6002.61,0.00133,162.62,,,,,,,
6002.64,0.00135,164.0,,,,,,,
6002.66,0.00138,165.34,,,,,,,
6002.68,0.0014,166.57,,,,,,,
6002.71,0.00143,167.49,,,,,,,
6002.74,0.00145,167.37,,,,,,,
6002.87,0.00143,151.87,,,,,,,
6002.89,0.0014,146.92,,,,,,,
6002.91,0.00138,142.13,,,,,,,
6002.94,0.00135,137.49,,,,,,,
6002.96,0.00133,133.21,,,,,,,
6002.98,0.0013,129.08,,,,,,,
6003.0,0.00127,124.83,,,,,,,
6003.02,0.00125,120.89,,,,,,,
6003.04,0.00122,116.87,,,,,,,
6003.06,0.0012,112.96,,,,,,,
6003.09,0.00117,109.11,,,,,,,
6003.11,0.00115,105.39,,,,,,,
6003.13,0.00112,101.6,,,,,,,
6003.16,0.0011,97.99,,,,,,,
6003.19,0.00107,94.26,,,,,,,
6003.21,0.00105,90.57,,,,,,,
6003.24,0.00102,86.92,,,,,,,
6003.27,0.00099,83.15,,,,,,,
6003.3,0.00097,79.73,,,,,,,
6003.32,0.00094,76.24,,,,,,,
6003.35,0.00092,72.58,,,,,,,
6003.38,0.00089,69.3,,,,,,,
6003.41,0.00087,65.69,,,,,,,
6003.43,0.00084,62.16,,,,,,,
6003.46,0.00082,58.71,,,,,,,
6003.49,0.00079,55.32,,,,,,,
6003.52,0.00077,51.85,,,,,,,
6003.54,0.00074,48.43,,,,,,,
6003.57,0.00072,44.94,,,,,,,
6003.6,0.00069,41.6,,,,,,,
6003.63,0.00066,38.1,,,,,,,
6003.65,0.00064,34.78,,,,,,,
6003.68,0.00061,31.35,,,,,,,
6003.71,0.00059,27.95,,,,,,,
6003.74,0.00056,24.76,,,,,,,
6003.76,0.00054,21.62,,,,,,,
6003.79,0.00051,18.4,,,,,,,
6003.81,0.00049,15.4,,,,,,,
6003.84,0.00046,12.36,,,,,,,
6003.87,0.00044,9.35,,,,,,,
6003.89,0.00041,6.2,,,,,,,
6003.92,0.00039,3.14,,,,,,,
6003.95,0.00036,0.13,,,,,,,
6003.98,0.00033,-2.94,,,,,,,
6004.01,0.00031,-6.0,,,,,,,
6004.03,0.00028,-8.91,,,,,,,
6004.06,0.00026,-11.86,,,,,,,
6004.09,0.00023,-14.71,,,,,,,
6004.13,0.00021,-16.93,,,,,,,
6004.25,0.00018,-18.82,,,,,,,
6004.3,0.00016,-21.72,,,,,,,
6004.34,0.00013,-24.79,,,,,,,
6004.37,0.00011,-27.7,,,,,,,
6004.41,8e-05,-30.6,,,,,,,
6004.44,6e-05,-33.91,,,,,,,
6004.46,3e-05,-37.17,,,,,,,
6004.48,1e-05,-40.19,,,,,,,
6004.51,-2e-05,-43.43,,,,,,,
6004.53,-5e-05,-46.74,,,,,,,
6004.55,-7e-05,-50.59,,,,,,,
6004.56,-0.0001,-53.73,,,,,,,
6004.58,-0.00012,-56.84,,,,,,,
6004.59,-0.00015,-59.99,,,,,,,
6004.61,-0.00018,-63.22,,,,,,,
6004.62,-0.0002,-66.21,,,,,,,
6004.64,-0.00023,-69.24,,,,,,,
6004.65,-0.00025,-72.24,,,,,,,
6004.67,-0.00028,-75.16,,,,,,,
6004.68,-0.00031,-78.22,,,,,,,
6004.7,-0.00033,-80.93,,,,,,,
6004.71,-0.00036,-83.81,,,,,,,
6004.73,-0.00038,-86.43,,,,,,,
6004.74,-0.00041,-89.08,,,,,,,
6004.76,-0.00043,-91.61,,,,,,,
6004.78,-0.00046,-94.2,,,,,,,
6004.8,-0.00049,-96.62,,,,,,,
6004.82,-0.00051,-98.94,,,,,,,
6004.84,-0.00054,-101.2,,,,,,,
6004.86,-0.00056,-103.6,,,,,,,
6004.88,-0.00059,-105.8,,,,,,,
6004.9,-0.00061,-108.0,,,,,,,
6004.92,-0.00064,-110.1,,,,,,,
6004.95,-0.00066,-112.1,,,,,,,
6004.97,-0.00069,-114.2,,,,,,,
6005.0,-0.00071,-116.4,,,,,,,
6005.02,-0.00074,-118.3,,,,,,,
6005.05,-0.00077,-120.4,,,,,,,
6005.08,-0.00079,-122.5,,,,,,,
6005.1,-0.00082,-124.5,,,,,,,
6005.13,-0.00084,-126.8,,,,,,,
6005.16,-0.00087,-128.8,,,,,,,
6005.18,-0.00089,-130.8,,,,,,,
6005.21,-0.00092,-132.9,,,,,,,
6005.24,-0.00094,-135.0,,,,,,,
6005.27,-0.00097,-137.1,,,,,,,
6005.29,-0.001,-139.1,,,,,,,
6005.32,-0.00102,-141.1,,,,,,,
6005.34,-0.00105,-143.1,,,,,,,
6005.37,-0.00107,-144.9,,,,,,,
6005.39,-0.0011,-146.9,,,,,,,
6005.42,-0.00112,-148.9,,,,,,,
6005.44,-0.00115,-150.6,,,,,,,
6005.47,-0.00117,-152.5,,,,,,,
6005.5,-0.0012,-154.3,,,,,,,
6005.52,-0.00123,-156.1,,,,,,,
6005.54,-0.00125,-157.7,,,,,,,
6005.57,-0.00128,-159.3,,,,,,,
6005.59,-0.0013,-160.9,,,,,,,
6005.62,-0.00133,-162.5,,,,,,,
6005.64,-0.00135,-164.0,,,,,,,
6005.67,-0.00138,-165.3,,,,,,,
6005.69,-0.0014,-166.6,,,,,,,
6005.72,-0.00143,-167.5,,,,,,,
6005.75,-0.00145,-167.5,,,,,,,
6005.89,-0.00143,-149.9,,,,,,,
6005.91,-0.0014,-144.6,,,,,,,
6005.93,-0.00138,-140.0,,,,,,,
6005.95,-0.00135,-135.4,,,,,,,
6005.97,-0.00132,-130.9,,,,,,,
6005.99,-0.0013,-126.6,,,,,,,
6006.01,-0.00127,-122.6,,,,,,,
6006.03,-0.00125,-118.8,,,,,,,
6006.05,-0.00122,-114.9,,,,,,,
6006.07,-0.0012,-111.0,,,,,,,
6006.09,-0.00117,-107.5,,,,,,,
6006.11,-0.00114,-103.7,,,,,,,
6006.13,-0.00112,-100.2,,,,,,,
6006.16,-0.00109,-96.41,,,,,,,
6006.18,-0.00107,-92.87,,,,,,,
6006.21,-0.00104,-89.25,,,,,,,
6006.24,-0.00102,-85.73,,,,,,,
6006.27,-0.00099,-82.09,,,,,,,
6006.29,-0.00097,-78.56,,,,,,,
6006.32,-0.00094,-74.97,,,,,,,
6006.35,-0.00092,-71.44,,,,,,,
6006.38,-0.00089,-67.8,,,,,,,
6006.41,-0.00086,-64.35,,,,,,,
6006.43,-0.00084,-61.01,,,,,,,
6006.46,-0.00081,-57.48,,,,,,,
6006.49,-0.00079,-54.04,,,,,,,
6006.51,-0.00076,-50.61,,,,,,,
6006.54,-0.00074,-47.23,,,,,,,
6006.57,-0.00071,-44.06,,,,,,,
6006.6,-0.00069,-40.49,,,,,,,
6006.62,-0.00066,-37.15,,,,,,,
6006.65,-0.00064,-33.91,,,,,,,
6006.68,-0.00061,-30.46,,,,,,,
6006.71,-0.00058,-27.04,,,,,,,
6006.73,-0.00056,-23.64,,,,,,,
6006.76,-0.00053,-20.3,,,,,,,
6006.79,-0.00051,-16.88,,,,,,,
6006.82,-0.00048,-13.55,,,,,,,
6006.84,-0.00046,-10.17,,,,,,,
6006.87,-0.00043,-6.86,,,,,,,
6006.9,-0.00041,-3.62,,,,,,,
6006.92,-0.00038,-0.39,,,,,,,
6006.95,-0.00036,2.95,,,,,,,
6006.98,-0.00033,6.29,,,,,,,
6007.01,-0.0003,9.49,,,,,,,
6007.03,-0.00028,12.66,,,,,,,
6007.06,-0.00025,15.85,,,,,,,
6007.09,-0.00023,19.0,,,,,,,
6007.12,-0.0002,22.21,,,,,,,
6007.15,-0.00018,25.02,,,,,,,
12009.97,-0.00016,27.02,,,,,,,
12010.03,-0.00014,29.4,,,,,,,
12010.09,-0.00011,31.61,,,,,,,
12010.14,-9e-05,34.72,,,,,,,
12010.18,-6e-05,37.38,,,,,,,
12010.21,-4e-05,40.24,,,,,,,
12010.24,-1e-05,43.32,,,,,,,
12010.27,1e-05,46.47,,,,,,,
12010.29,4e-05,50.08,,,,,,,
12010.31,6e-05,53.53,,,,,,,
12010.32,9e-05,56.47,,,,,,,
12010.34,0.00012,59.38,,,,,,,
12010.35,0.00014,62.38,,,,,,,
12010.37,0.00017,65.22,,,,,,,
12010.39,0.00019,67.83,,,,,,,
12010.42,0.00022,70.44,,,,,,,
12010.44,0.00024,72.98,,,,,,,
12010.47,0.00027,75.54,,,,,,,
12010.5,0.00029,77.88,,,,,,,
12010.53,0.00032,80.33,,,,,,,
12010.56,0.00034,82.8,,,,,,,
12010.59,0.00037,85.85,,,,,,,
12010.61,0.00039,88.79,,,,,,,
12010.63,0.00042,91.7,,,,,,,
12010.65,0.00045,94.79,,,,,,,
12010.67,0.00047,97.66,,,,,,,
12010.68,0.0005,100.49,,,,,,,
12010.7,0.00052,103.2,,,,,,,
12010.72,0.00055,105.85,,,,,,,
12010.73,0.00057,108.46,,,,,,,
12010.75,0.0006,110.96,,,,,,,
12010.77,0.00062,113.6,,,,,,,
12010.79,0.00065,116.11,,,,,,,
12010.81,0.00068,118.57,,,,,,,
12010.83,0.0007,120.98,,,,,,,
12010.84,0.00073,123.12,,,,,,,
12010.86,0.00075,124.97,,,,,,,
12010.88,0.00078,126.82,,,,,,,
12010.9,0.00081,128.7,,,,,,,
12010.92,0.00083,130.56,,,,,,,
12010.95,0.00086,132.53,,,,,,,
12010.98,0.00088,134.41,,,,,,,
12011.0,0.00091,136.24,,,,,,,
12011.03,0.00093,137.96,,,,,,,
12011.05,0.00096,139.72,,,,,,,
12011.08,0.00098,141.48,,,,,,,
12011.11,0.00101,143.27,,,,,,,
12011.13,0.00103,144.94,,,,,,,
12011.16,0.00106,146.66,,,,,,,
12011.18,0.00109,148.36,,,,,,,
12011.21,0.00111,150.07,,,,,,,
12011.23,0.00114,151.65,,,,,,,
12011.26,0.00116,153.26,,,,,,,
12011.28,0.00119,154.81,,,,,,,
12011.31,0.00121,156.36,,,,,,,
12011.33,0.00124,157.76,,,,,,,
12011.35,0.00126,159.2,,,,,,,
12011.38,0.00129,160.59,,,,,,,
12011.4,0.00132,161.9,,,,,,,
12011.43,0.00134,163.24,,,,,,,
12011.45,0.00137,164.52,,,,,,,
12011.47,0.00139,165.65,,,,,,,
12011.5,0.00142,166.6,,,,,,,
12011.52,0.00144,167.14,,,,,,,
12011.56,0.00147,166.28,,,,,,,
12011.66,0.00144,153.3,,,,,,,
12011.68,0.00142,147.86,,,,,,,
12011.71,0.00139,142.71,,,,,,,
12011.73,0.00137,137.76,,,,,,,
12011.75,0.00134,133.1,,,,,,,
12011.77,0.00132,128.7,,,,,,,
12011.79,0.00129,124.48,,,,,,,
12011.81,0.00127,120.47,,,,,,,
12011.84,0.00124,116.29,,,,,,,
12011.86,0.00121,112.39,,,,,,,
12011.88,0.00119,108.69,,,,,,,
12011.9,0.00116,104.96,,,,,,,
12011.92,0.00114,101.46,,,,,,,
12011.95,0.00111,97.77,,,,,,,
12011.98,0.00109,94.0,,,,,,,
12012.0,0.00106,90.48,,,,,,,
12012.03,0.00103,86.91,,,,,,,
12012.06,0.00101,83.26,,,,,,,
12012.08,0.00098,79.95,,,,,,,
12012.11,0.00096,76.27,,,,,,,
12012.14,0.00093,72.61,,,,,,,
12012.17,0.00091,69.11,,,,,,,
12012.2,0.00088,65.58,,,,,,,
12012.22,0.00086,62.13,,,,,,,
12012.25,0.00083,58.71,,,,,,,
12012.28,0.00081,55.29,,,,,,,
12012.31,0.00078,52.02,,,,,,,
12012.33,0.00076,48.41,,,,,,,
12012.36,0.00073,44.95,,,,,,,
12012.39,0.0007,41.51,,,,,,,
12012.42,0.00068,38.2,,,,,,,
12012.45,0.00065,34.72,,,,,,,
12012.47,0.00063,31.41,,,,,,,
12012.5,0.0006,27.7,,,,,,,
12012.53,0.00058,24.38,,,,,,,
12012.56,0.00055,20.91,,,,,,,
12012.58,0.00053,17.62,,,,,,,
12012.61,0.0005,14.41,,,,,,,
12012.64,0.00048,11.24,,,,,,,
12012.67,0.00045,7.95,,,,,,,
12012.69,0.00042,4.68,,,,,,,
12012.72,0.0004,1.48,,,,,,,
12012.75,0.00037,-1.76,,,,,,,
12012.78,0.00035,-5.05,,,,,,,
12012.81,0.00032,-8.21,,,,,,,
12012.83,0.0003,-11.17,,,,,,,
12012.86,0.00027,-14.33,,,,,,,
12012.89,0.00025,-16.74,,,,,,,
12013.0,0.00022,-18.22,,,,,,,
12013.06,0.0002,-21.26,,,,,,,
12013.11,0.00017,-24.47,,,,,,,
12013.15,0.00015,-27.74,,,,,,,
12013.18,0.00012,-30.67,,,,,,,
12013.21,0.0001,-34.11,,,,,,,
12013.24,7e-05,-37.53,,,,,,,
12013.26,4e-05,-40.89,,,,,,,
12013.28,2e-05,-43.95,,,,,,,
12013.3,-1e-05,-47.15,,,,,,,
12013.32,-3e-05,-50.87,,,,,,,
12013.33,-6e-05,-53.87,,,,,,,
12013.35,-8e-05,-56.93,,,,,,,
12013.36,-0.00011,-59.94,,,,,,,
12013.38,-0.00014,-63.21,,,,,,,
12013.39,-0.00016,-66.05,,,,,,,
12013.4,-0.00019,-68.91,,,,,,,
12013.42,-0.00021,-71.79,,,,,,,
12013.43,-0.00024,-74.7,,,,,,,
12013.45,-0.00027,-77.52,,,,,,,
12013.46,-0.00029,-80.43,,,,,,,
12013.48,-0.00032,-83.09,,,,,,,
12013.49,-0.00034,-85.74,,,,,,,
12013.51,-0.00037,-88.22,,,,,,,
12013.52,-0.00039,-90.71,,,,,,,
12013.54,-0.00042,-93.13,,,,,,,
12013.56,-0.00044,-95.56,,,,,,,
12013.58,-0.00047,-97.91,,,,,,,
12013.6,-0.00049,-100.2,,,,,,,
12013.62,-0.00052,-102.5,,,,,,,
12013.64,-0.00055,-104.9,,,,,,,
12013.66,-0.00057,-106.9,,,,,,,
12013.68,-0.0006,-108.8,,,,,,,
12013.71,-0.00062,-110.9,,,,,,,
12013.73,-0.00065,-112.9,,,,,,,
12013.76,-0.00067,-114.9,,,,,,,
12013.78,-0.0007,-116.7,,,,,,,
12013.81,-0.00072,-118.9,,,,,,,
12013.84,-0.00075,-120.9,,,,,,,
12013.87,-0.00078,-122.9,,,,,,,
12013.89,-0.0008,-124.8,,,,,,,
12013.92,-0.00083,-126.8,,,,,,,
12013.94,-0.00085,-128.7,,,,,,,
12013.97,-0.00088,-130.6,,,,,,,
12013.99,-0.0009,-132.4,,,,,,,
12014.02,-0.00093,-134.2,,,,,,,
12014.05,-0.00095,-136.1,,,,,,,
12014.07,-0.00098,-137.9,,,,,,,
12014.1,-0.001,-139.7,,,,,,,
12014.12,-0.00103,-141.6,,,,,,,
12014.15,-0.00105,-143.3,,,,,,,
12014.17,-0.00108,-145.0,,,,,,,
12014.2,-0.00111,-146.7,,,,,,,
12014.22,-0.00113,-148.5,,,,,,,
12014.25,-0.00116,-150.2,,,,,,,
12014.28,-0.00118,-151.9,,,,,,,
12014.31,-0.00121,-153.6,,,,,,,
12014.33,-0.00123,-155.3,,,,,,,
12014.36,-0.00126,-157.0,,,,,,,
12014.38,-0.00128,-158.5,,,,,,,
12014.41,-0.00131,-160.1,,,,,,,
12014.43,-0.00134,-161.7,,,,,,,
12014.46,-0.00136,-163.3,,,,,,,
12014.49,-0.00139,-164.7,,,,,,,
12014.51,-0.00141,-166.0,,,,,,,
12014.54,-0.00144,-166.6,,,,,,,
12014.57,-0.00146,-165.9,,,,,,,
12014.68,-0.00144,-151.1,,,,,,,
12014.71,-0.00141,-145.8,,,,,,,
12014.73,-0.00139,-140.8,,,,,,,
12014.75,-0.00136,-136.4,,,,,,,
12014.77,-0.00134,-132.2,,,,,,,
12014.79,-0.00131,-127.8,,,,,,,
12014.8,-0.00128,-124.0,,,,,,,
12014.82,-0.00126,-119.9,,,,,,,
12014.84,-0.00123,-116.0,,,,,,,
12014.86,-0.00121,-112.1,,,,,,,
12014.89,-0.00118,-108.1,,,,,,,
12014.91,-0.00116,-104.4,,,,,,,
12014.93,-0.00113,-100.5,,,,,,,
12014.96,-0.0011,-96.74,,,,,,,
12014.99,-0.00108,-92.92,,,,,,,
12015.01,-0.00105,-89.1,,,,,,,
12015.04,-0.00103,-85.36,,,,,,,
12015.07,-0.001,-81.19,,,,,,,
12015.1,-0.00098,-77.38,,,,,,,
12015.12,-0.00095,-73.84,,,,,,,
12015.15,-0.00093,-70.6,,,,,,,
12015.17,-0.0009,-67.44,,,,,,,
12015.2,-0.00088,-64.14,,,,,,,
12015.23,-0.00085,-60.45,,,,,,,
12015.26,-0.00082,-56.58,,,,,,,
12015.29,-0.0008,-53.04,,,,,,,
12015.31,-0.00077,-49.52,,,,,,,
12015.34,-0.00075,-45.96,,,,,,,
12015.37,-0.00072,-42.73,,,,,,,
12015.4,-0.0007,-39.13,,,,,,,
12015.42,-0.00067,-35.63,,,,,,,
12015.45,-0.00065,-31.82,,,,,,,
12015.48,-0.00062,-28.34,,,,,,,
12015.51,-0.0006,-24.96,,,,,,,
12015.54,-0.00057,-21.38,,,,,,,
12015.56,-0.00054,-17.81,,,,,,,
12015.59,-0.00052,-14.23,,,,,,,
12015.62,-0.00049,-10.51,,,,,,,
12015.65,-0.00047,-7.32,,,,,,,
12015.67,-0.00044,-4.17,,,,,,,
12015.7,-0.00042,-0.93,,,,,,,
12015.72,-0.00039,2.19,,,,,,,
12015.75,-0.00037,5.21,,,,,,,
12015.77,-0.00034,8.38,,,,,,,
12015.8,-0.00032,11.87,,,,,,,
12015.83,-0.00029,15.14,,,,,,,
12015.86,-0.00026,18.27,,,,,,,
12015.89,-0.00024,21.31,,,,,,,
12015.92,-0.00021,24.41,,,,,,,
12015.96,-0.00019,27.34,,,,,,,
25217.33,-0.00015,27.61,,,,,,,
25217.4,-0.00012,29.88,,,,,,,
25217.47,-0.0001,32.93,,,,,,,
25217.51,-7e-05,35.99,,,,,,,
25217.55,-5e-05,39.01,,,,,,,
25217.58,-2e-05,42.0,,,,,,,
25217.61,0.0,45.39,,,,,,,
25217.63,3e-05,48.57,,,,,,,
25217.65,5e-05,52.3,,,,,,,
25217.67,8e-05,55.48,,,,,,,
25217.68,0.00011,58.44,,,,,,,
25217.7,0.00013,61.29,,,,,,,
25217.71,0.00016,64.3,,,,,,,
25217.73,0.00018,66.92,,,,,,,
25217.75,0.00021,69.55,,,,,,,
25217.78,0.00023,72.11,,,,,,,
25217.8,0.00026,74.35,,,,,,,
25217.83,0.00028,76.89,,,,,,,
25217.86,0.00031,79.22,,,,,,,
25217.89,0.00033,81.57,,,,,,,
25217.92,0.00036,84.31,,,,,,,
25217.94,0.00039,87.08,,,,,,,
25217.96,0.00041,89.96,,,,,,,
25217.98,0.00044,92.59,,,,,,,
25218.0,0.00046,95.29,,,,,,,
25218.01,0.00049,98.14,,,,,,,
25218.03,0.00051,100.69,,,,,,,
25218.05,0.00054,103.36,,,,,,,
25218.06,0.00056,106.02,,,,,,,
25218.08,0.00059,108.43,,,,,,,
25218.1,0.00062,110.85,,,,,,,
25218.12,0.00064,113.26,,,,,,,
25218.14,0.00067,115.55,,,,,,,
25218.16,0.00069,117.82,,,,,,,
25218.18,0.00072,120.01,,,,,,,
25218.2,0.00074,122.13,,,,,,,
25218.22,0.00077,124.08,,,,,,,
25218.24,0.00079,126.02,,,,,,,
25218.26,0.00082,127.97,,,,,,,
25218.28,0.00084,129.76,,,,,,,
25218.31,0.00087,131.58,,,,,,,
25218.33,0.00089,133.37,,,,,,,
25218.36,0.00092,135.02,,,,,,,
25218.38,0.00094,136.74,,,,,,,
25218.41,0.00097,138.41,,,,,,,
25218.43,0.001,140.02,,,,,,,
25218.46,0.00102,141.75,,,,,,,
25218.48,0.00105,143.48,,,,,,,
25218.51,0.00107,145.1,,,,,,,
25218.54,0.0011,146.8,,,,,,,
25218.56,0.00113,148.39,,,,,,,
25218.59,0.00115,150.08,,,,,,,
25218.62,0.00118,151.64,,,,,,,
25218.64,0.0012,153.27,,,,,,,
25218.67,0.00123,154.82,,,,,,,
25218.69,0.00125,156.28,,,,,,,
25218.71,0.00128,157.72,,,,,,,
25218.74,0.0013,159.19,,,,,,,
25218.76,0.00133,160.63,,,,,,,
25218.79,0.00136,162.0,,,,,,,
25218.81,0.00138,163.27,,,,,,,
25218.84,0.00141,164.47,,,,,,,
25218.86,0.00143,165.28,,,,,,,
25218.89,0.00146,164.99,,,,,,,
25219.01,0.00143,150.07,,,,,,,
25219.04,0.00141,144.66,,,,,,,
25219.06,0.00138,140.01,,,,,,,
25219.08,0.00135,135.43,,,,,,,
25219.1,0.00133,131.17,,,,,,,
25219.12,0.0013,127.07,,,,,,,
25219.14,0.00128,122.96,,,,,,,
25219.16,0.00125,118.94,,,,,,,
25219.18,0.00123,115.04,,,,,,,
25219.2,0.0012,111.18,,,,,,,
25219.23,0.00117,107.23,,,,,,,
25219.25,0.00115,103.43,,,,,,,
25219.28,0.00112,99.84,,,,,,,
25219.3,0.0011,96.03,,,,,,,
25219.33,0.00107,92.46,,,,,,,
25219.36,0.00105,88.95,,,,,,,
25219.38,0.00102,85.3,,,,,,,
25219.41,0.001,81.65,,,,,,,
25219.44,0.00097,78.21,,,,,,,
25219.47,0.00095,74.58,,,,,,,
25219.5,0.00092,71.02,,,,,,,
25219.52,0.00089,67.77,,,,,,,
25219.55,0.00087,64.25,,,,,,,
25219.58,0.00084,60.63,,,,,,,
25219.6,0.00082,57.52,,,,,,,
25219.63,0.00079,54.13,,,,,,,
25219.66,0.00077,50.6,,,,,,,
25219.69,0.00074,47.56,,,,,,,
25219.71,0.00072,44.12,,,,,,,
25219.74,0.00069,40.76,,,,,,,
25219.77,0.00067,37.61,,,,,,,
25219.79,0.00064,34.48,,,,,,,
25219.82,0.00062,31.27,,,,,,,
25219.83,0.0006,29.61,,,,,,,
25219.85,0.00059,28.0,,,,,,,
25219.87,0.00057,24.99,,,,,,,
25219.9,0.00054,21.81,,,,,,,
25219.93,0.00051,18.71,,,,,,,
25219.95,0.00049,15.83,,,,,,,
25219.98,0.00046,12.71,,,,,,,
25220.01,0.00044,9.63,,,,,,,
25220.04,0.00041,6.41,,,,,,,
25220.07,0.00039,3.17,,,,,,,
25220.1,0.00036,0.12,,,,,,,
25220.13,0.00034,-3.18,,,,,,,
25220.15,0.00031,-6.31,,,,,,,
25220.18,0.00029,-9.49,,,,,,,
25220.21,0.00026,-12.64,,,,,,,
25220.24,0.00023,-15.59,,,,,,,
25220.37,0.00021,-18.26,,,,,,,
25220.43,0.00018,-21.96,,,,,,,
25220.47,0.00016,-25.08,,,,,,,
25220.51,0.00013,-28.42,,,,,,,
25220.54,0.00011,-31.11,,,,,,,
25220.56,8e-05,-33.91,,,,,,,
25220.59,6e-05,-37.22,,,,,,,
25220.61,3e-05,-40.34,,,,,,,
25220.63,1e-05,-43.36,,,,,,,
25220.65,-2e-05,-46.38,,,,,,,
25220.67,-5e-05,-49.97,,,,,,,
25220.69,-7e-05,-53.22,,,,,,,
25220.7,-0.0001,-56.07,,,,,,,
25220.71,-0.00012,-58.98,,,,,,,
25220.73,-0.00015,-61.92,,,,,,,
25220.74,-0.00017,-64.89,,,,,,,
25220.76,-0.0002,-67.92,,,,,,,
25220.77,-0.00022,-70.98,,,,,,,
25220.79,-0.00025,-73.66,,,,,,,
25220.8,-0.00028,-76.51,,,,,,,
25220.82,-0.0003,-79.45,,,,,,,
25220.83,-0.00033,-82.25,,,,,,,
25220.85,-0.00035,-85.09,,,,,,,
25220.87,-0.00038,-87.58,,,,,,,
25220.88,-0.00041,-90.29,,,,,,,
25220.9,-0.00043,-92.84,,,,,,,
25220.92,-0.00046,-95.38,,,,,,,
25220.94,-0.00048,-97.67,,,,,,,
25220.95,-0.00051,-99.88,,,,,,,
25220.98,-0.00053,-102.3,,,,,,,
25221.0,-0.00056,-104.5,,,,,,,
25221.02,-0.00059,-106.6,,,,,,,
25221.04,-0.00061,-108.7,,,,,,,
25221.07,-0.00064,-110.8,,,,,,,
25221.09,-0.00066,-112.9,,,,,,,
25221.12,-0.00069,-114.8,,,,,,,
25221.14,-0.00071,-117.0,,,,,,,
25221.17,-0.00074,-119.0,,,,,,,
25221.2,-0.00076,-121.3,,,,,,,
25221.22,-0.00079,-123.5,,,,,,,
25221.25,-0.00082,-125.5,,,,,,,
25221.28,-0.00084,-127.6,,,,,,,
25221.3,-0.00087,-129.5,,,,,,,
25221.33,-0.00089,-131.5,,,,,,,
25221.35,-0.00092,-133.5,,,,,,,
25221.38,-0.00094,-135.4,,,,,,,
25221.41,-0.00097,-137.5,,,,,,,
25221.43,-0.00099,-139.3,,,,,,,
25221.46,-0.00102,-141.3,,,,,,,
25221.49,-0.00104,-143.3,,,,,,,
25221.51,-0.00107,-145.1,,,,,,,
25221.54,-0.00109,-146.8,,,,,,,
25221.56,-0.00112,-148.5,,,,,,,
25221.58,-0.00115,-150.1,,,,,,,
25221.61,-0.00117,-151.8,,,,,,,
25221.64,-0.0012,-153.8,,,,,,,
25221.66,-0.00122,-155.4,,,,,,,
25221.69,-0.00125,-157.1,,,,,,,
25221.71,-0.00127,-158.7,,,,,,,
25221.73,-0.0013,-160.1,,,,,,,
25221.76,-0.00132,-161.6,,,,,,,
25221.78,-0.00135,-163.1,,,,,,,
25221.81,-0.00138,-164.6,,,,,,,
25221.83,-0.0014,-165.9,,,,,,,
25221.86,-0.00143,-166.9,,,,,,,
25221.89,-0.00145,-167.1,,,,,,,
25222.04,-0.00143,-149.0,,,,,,,
25222.06,-0.0014,-143.6,,,,,,,
25222.08,-0.00137,-138.9,,,,,,,
25222.1,-0.00135,-134.2,,,,,,,
25222.12,-0.00132,-129.6,,,,,,,
25222.14,-0.0013,-125.2,,,,,,,
25222.16,-0.00127,-121.0,,,,,,,
25222.18,-0.00125,-116.9,,,,,,,
25222.2,-0.00122,-112.8,,,,,,,
25222.22,-0.0012,-108.8,,,,,,,
25222.25,-0.00117,-105.0,,,,,,,
25222.27,-0.00115,-101.0,,,,,,,
25222.29,-0.00112,-97.27,,,,,,,
25222.32,-0.00109,-93.28,,,,,,,
25222.34,-0.00107,-89.48,,,,,,,
25222.37,-0.00104,-85.74,,,,,,,
25222.4,-0.00102,-82.12,,,,,,,
25222.42,-0.00099,-78.48,,,,,,,
25222.45,-0.00097,-75.09,,,,,,,
25222.47,-0.00094,-71.51,,,,,,,
25222.5,-0.00092,-67.8,,,,,,,
25222.53,-0.00089,-64.18,,,,,,,
25222.56,-0.00087,-60.49,,,,,,,
25222.59,-0.00084,-56.94,,,,,,,
25222.61,-0.00081,-53.66,,,,,,,
25222.64,-0.00079,-50.11,,,,,,,
25222.67,-0.00076,-46.31,,,,,,,
25222.7,-0.00074,-42.79,,,,,,,
25222.72,-0.00071,-39.4,,,,,,,
25222.75,-0.00069,-35.75,,,,,,,
25222.78,-0.00066,-32.64,,,,,,,
25222.8,-0.00064,-29.49,,,,,,,
25222.83,-0.00061,-26.31,,,,,,,
25222.85,-0.00058,-23.01,,,,,,,
25222.88,-0.00056,-19.82,,,,,,,
25222.91,-0.00053,-16.4,,,,,,,
25222.94,-0.00051,-12.96,,,,,,,
25222.96,-0.00048,-10.02,,,,,,,
25222.99,-0.00046,-7.01,,,,,,,
25223.02,-0.00043,-3.89,,,,,,,
25223.04,-0.00041,-0.62,,,,,,,
25223.07,-0.00038,2.46,,,,,,,
25223.1,-0.00035,5.64,,,,,,,
25223.13,-0.00033,8.91,,,,,,,
25223.16,-0.0003,11.92,,,,,,,
25223.19,-0.00028,15.14,,,,,,,
25223.21,-0.00025,18.26,,,,,,,
25223.24,-0.00023,21.45,,,,,,,
25223.27,-0.0002,24.37,,,,,,,
25223.31,-0.00018,26.96,,,,,,,
30036.4,-0.00018,29.97,,,,,,,
30036.47,-0.00015,32.86,,,,,,,
30036.51,-0.00013,35.64,,,,,,,
30036.54,-0.0001,38.52,,,,,,,
30036.58,-8e-05,41.47,,,,,,,
30036.61,-5e-05,44.92,,,,,,,
30036.63,-2e-05,48.14,,,,,,,
30036.65,0.0,51.88,,,,,,,
30036.67,3e-05,55.06,,,,,,,
30036.68,5e-05,58.18,,,,,,,
30036.7,8e-05,61.07,,,,,,,
30036.71,0.0001,63.88,,,,,,,
30036.73,0.00013,66.63,,,,,,,
30036.75,0.00016,69.23,,,,,,,
30036.78,0.00018,71.68,,,,,,,
30036.8,0.00021,74.1,,,,,,,
30036.83,0.00023,76.38,,,,,,,
30036.85,0.00026,78.48,,,,,,,
30036.88,0.00028,80.7,,,,,,,
30036.91,0.00031,83.04,,,,,,,
30036.93,0.00033,85.45,,,,,,,
30036.95,0.00036,87.99,,,,,,,
30036.97,0.00039,90.83,,,,,,,
30036.99,0.00041,93.36,,,,,,,
30037.01,0.00044,95.97,,,,,,,
30037.03,0.00046,98.47,,,,,,,
30037.04,0.00049,100.96,,,,,,,
30037.06,0.00051,103.26,,,,,,,
30037.08,0.00054,105.6,,,,,,,
30037.09,0.00056,107.87,,,,,,,
30037.11,0.00059,110.0,,,,,,,
30037.13,0.00062,112.14,,,,,,,
30037.15,0.00064,114.08,,,,,,,
30037.17,0.00067,115.95,,,,,,,
30037.19,0.00069,117.77,,,,,,,
30037.21,0.00072,119.57,,,,,,,
30037.23,0.00075,121.21,,,,,,,
30037.25,0.00077,122.77,,,,,,,
30037.28,0.0008,124.29,,,,,,,
30037.3,0.00082,125.8,,,,,,,
30037.32,0.00085,127.2,,,,,,,
30037.35,0.00087,128.62,,,,,,,
30037.38,0.0009,130.15,,,,,,,
30037.41,0.00093,131.71,,,,,,,
30037.43,0.00095,133.13,,,,,,,
30037.46,0.00098,134.61,,,,,,,
30037.49,0.001,136.19,,,,,,,
30037.51,0.00103,137.63,,,,,,,
30037.54,0.00105,139.18,,,,,,,
30037.56,0.00108,140.63,,,,,,,
30037.59,0.0011,142.17,,,,,,,
30037.61,0.00113,143.57,,,,,,,
30037.63,0.00116,144.96,,,,,,,
30037.66,0.00118,146.29,,,,,,,
30037.69,0.00121,147.61,,,,,,,
30037.71,0.00123,148.85,,,,,,,
30037.73,0.00126,150.07,,,,,,,
30037.76,0.00128,151.35,,,,,,,
30037.79,0.00131,152.62,,,,,,,
30037.81,0.00133,153.86,,,,,,,
30037.83,0.00136,155.03,,,,,,,
30037.86,0.00138,156.14,,,,,,,
30037.88,0.00141,157.23,,,,,,,
30037.92,0.00144,158.08,,,,,,,
30037.96,0.00146,157.2,,,,,,,
30038.06,0.00144,144.72,,,,,,,
30038.09,0.00141,139.6,,,,,,,
30038.11,0.00138,134.83,,,,,,,
30038.13,0.00136,130.52,,,,,,,
30038.15,0.00133,126.29,,,,,,,
30038.17,0.00131,122.39,,,,,,,
30038.19,0.00128,118.32,,,,,,,
30038.21,0.00126,114.17,,,,,,,
30038.24,0.00123,110.18,,,,,,,
30038.26,0.00121,106.34,,,,,,,
30038.28,0.00118,102.42,,,,,,,
30038.31,0.00115,98.47,,,,,,,
30038.33,0.00113,94.81,,,,,,,
30038.36,0.0011,91.32,,,,,,,
30038.38,0.00108,87.42,,,,,,,
30038.41,0.00105,83.92,,,,,,,
30038.44,0.00103,80.65,,,,,,,
30038.47,0.001,76.51,,,,,,,
30038.49,0.00098,72.96,,,,,,,
30038.52,0.00095,69.46,,,,,,,
30038.55,0.00093,65.95,,,,,,,
30038.58,0.0009,61.91,,,,,,,
30038.61,0.00087,58.2,,,,,,,
30038.64,0.00085,54.83,,,,,,,
30038.66,0.00082,51.38,,,,,,,
30038.69,0.0008,47.9,,,,,,,
30038.72,0.00077,44.39,,,,,,,
30038.74,0.00075,41.12,,,,,,,
30038.77,0.00072,37.72,,,,,,,
30038.8,0.0007,33.97,,,,,,,
30038.83,0.00067,30.49,,,,,,,
30038.86,0.00065,27.21,,,,,,,
30038.88,0.00062,23.81,,,,,,,
30038.91,0.0006,20.56,,,,,,,
30038.94,0.00057,17.31,,,,,,,
30038.96,0.00054,14.04,,,,,,,
30038.99,0.00052,10.81,,,,,,,
30039.02,0.00049,7.41,,,,,,,
30039.05,0.00047,4.1,,,,,,,
30039.07,0.00044,1.16,,,,,,,
30039.1,0.00042,-1.65,,,,,,,
30039.12,0.00039,-4.85,,,,,,,
30039.15,0.00037,-7.94,,,,,,,
30039.18,0.00034,-10.85,,,,,,,
30039.21,0.00032,-13.77,,,,,,,
30039.25,0.00029,-16.61,,,,,,,
30039.37,0.00026,-18.41,,,,,,,
30039.42,0.00024,-21.43,,,,,,,
30039.45,0.00021,-24.46,,,,,,,
30039.49,0.00019,-27.3,,,,,,,
30039.53,0.00016,-30.1,,,,,,,
30039.56,0.00014,-33.15,,,,,,,
30039.59,0.00011,-36.94,,,,,,,
30039.61,9e-05,-40.12,,,,,,,
30039.63,6e-05,-43.22,,,,,,,
30039.65,3e-05,-46.66,,,,,,,
30039.67,1e-05,-50.52,,,,,,,
30039.69,-2e-05,-53.57,,,,,,,
30039.7,-4e-05,-56.58,,,,,,,
30039.71,-7e-05,-59.66,,,,,,,
30039.73,-9e-05,-62.77,,,,,,,
30039.74,-0.00012,-65.87,,,,,,,
30039.76,-0.00015,-68.95,,,,,,,
30039.77,-0.00017,-71.83,,,,,,,
30039.79,-0.0002,-74.96,,,,,,,
30039.8,-0.00022,-77.81,,,,,,,
30039.82,-0.00025,-80.56,,,,,,,
30039.83,-0.00028,-83.49,,,,,,,
30039.83,-0.00028,-83.85,,,,,,,
30039.85,-0.0003,-86.28,,,,,,,
30039.87,-0.00033,-88.82,,,,,,,
30039.88,-0.00035,-91.49,,,,,,,
30039.9,-0.00038,-94.11,,,,,,,
30039.92,-0.00041,-96.31,,,,,,,
30039.94,-0.00043,-98.49,,,,,,,
30039.95,-0.00046,-100.8,,,,,,,
30039.97,-0.00048,-103.0,,,,,,,
30040.0,-0.00051,-105.1,,,,,,,
30040.02,-0.00053,-107.3,,,,,,,
30040.04,-0.00056,-109.3,,,,,,,
30040.06,-0.00058,-111.2,,,,,,,
30040.09,-0.00061,-113.2,,,,,,,
30040.12,-0.00064,-115.3,,,,,,,
30040.14,-0.00066,-117.0,,,,,,,
30040.17,-0.00069,-118.9,,,,,,,
30040.19,-0.00071,-120.9,,,,,,,
30040.22,-0.00074,-122.8,,,,,,,
30040.25,-0.00076,-124.6,,,,,,,
30040.27,-0.00079,-126.5,,,,,,,
30040.3,-0.00081,-128.3,,,,,,,
30040.33,-0.00084,-130.4,,,,,,,
30040.35,-0.00087,-132.3,,,,,,,
30040.38,-0.00089,-134.2,,,,,,,
30040.41,-0.00092,-136.1,,,,,,,
30040.44,-0.00094,-138.1,,,,,,,
30040.46,-0.00097,-140.0,,,,,,,
30040.49,-0.00099,-141.8,,,,,,,
30040.51,-0.00102,-143.5,,,,,,,
30040.54,-0.00104,-145.3,,,,,,,
30040.56,-0.00107,-147.1,,,,,,,
30040.59,-0.0011,-148.8,,,,,,,
30040.61,-0.00112,-150.3,,,,,,,
30040.63,-0.00115,-151.8,,,,,,,
30040.66,-0.00117,-153.4,,,,,,,
30040.69,-0.0012,-155.0,,,,,,,
30040.71,-0.00122,-156.3,,,,,,,
30040.73,-0.00125,-157.6,,,,,,,
30040.76,-0.00128,-159.1,,,,,,,
30040.78,-0.0013,-160.4,,,,,,,
30040.81,-0.00133,-161.7,,,,,,,
30040.83,-0.00135,-162.8,,,,,,,
30040.86,-0.00138,-164.0,,,,,,,
30040.88,-0.0014,-165.1,,,,,,,
30040.9,-0.00143,-165.9,,,,,,,
30040.93,-0.00145,-166.2,,,,,,,
30040.97,-0.00148,-164.8,,,,,,,
30041.06,-0.00145,-151.3,,,,,,,
30041.09,-0.00143,-145.8,,,,,,,
30041.11,-0.0014,-140.8,,,,,,,
30041.13,-0.00138,-136.1,,,,,,,
30041.15,-0.00135,-131.5,,,,,,,
30041.17,-0.00133,-127.3,,,,,,,
30041.19,-0.0013,-123.1,,,,,,,
30041.21,-0.00128,-118.9,,,,,,,
30041.23,-0.00125,-114.9,,,,,,,
30041.25,-0.00122,-110.9,,,,,,,
30041.27,-0.0012,-107.2,,,,,,,
30041.29,-0.00117,-103.5,,,,,,,
30041.31,-0.00115,-99.67,,,,,,,
30041.34,-0.00112,-96.05,,,,,,,
30041.36,-0.0011,-92.36,,,,,,,
30041.39,-0.00107,-88.76,,,,,,,
30041.41,-0.00105,-85.24,,,,,,,
30041.44,-0.00102,-81.64,,,,,,,
30041.47,-0.00099,-78.16,,,,,,,
30041.49,-0.00097,-74.75,,,,,,,
30041.52,-0.00094,-71.34,,,,,,,
30041.55,-0.00092,-68.02,,,,,,,
30041.58,-0.00089,-64.58,,,,,,,
30041.6,-0.00087,-61.31,,,,,,,
30041.63,-0.00084,-57.99,,,,,,,
30041.66,-0.00082,-54.67,,,,,,,
30041.68,-0.00079,-51.49,,,,,,,
30041.71,-0.00077,-48.09,,,,,,,
30041.74,-0.00074,-44.75,,,,,,,
30041.77,-0.00072,-41.56,,,,,,,
30041.79,-0.00069,-38.27,,,,,,,
30041.82,-0.00066,-35.05,,,,,,,
30041.85,-0.00064,-31.95,,,,,,,
30041.87,-0.00061,-28.63,,,,,,,
30041.9,-0.00059,-25.27,,,,,,,
30041.93,-0.00056,-22.17,,,,,,,
30041.95,-0.00054,-19.03,,,,,,,
30041.98,-0.00051,-15.93,,,,,,,
30042.01,-0.00049,-12.74,,,,,,,
30042.04,-0.00046,-9.69,,,,,,,
30042.06,-0.00044,-6.6,,,,,,,
30042.09,-0.00041,-3.52,,,,,,,
30042.12,-0.00039,-0.36,,,,,,,
30042.15,-0.00036,2.72,,,,,,,
30042.17,-0.00033,5.79,,,,,,,
30042.2,-0.00031,8.91,,,,,,,
30042.23,-0.00028,12.0,,,,,,,
30042.26,-0.00026,15.07,,,,,,,
30042.28,-0.00023,18.1,,,,,,,
30042.31,-0.00021,21.17,,,,,,,
30042.34,-0.00018,23.86,,,,,,,
45058.45,-0.00014,24.34,,,,,,,
45058.49,-0.00011,26.4,,,,,,,
45058.58,-8e-05,28.6,,,,,,,
45058.63,-6e-05,31.42,,,,,,,
45058.67,-3e-05,34.16,,,,,,,
45058.7,-1e-05,36.91,,,,,,,
45058.74,2e-05,39.71,,,,,,,
45058.77,4e-05,42.1,,,,,,,
45058.79,7e-05,44.97,,,,,,,
45058.81,9e-05,47.87,,,,,,,
45058.83,0.00012,51.33,,,,,,,
45058.85,0.00014,54.18,,,,,,,
45058.86,0.00017,56.95,,,,,,,
45058.88,0.0002,59.68,,,,,,,
45058.9,0.00022,62.29,,,,,,,
45058.91,0.00025,64.93,,,,,,,
45058.93,0.00027,67.25,,,,,,,
45058.95,0.0003,69.6,,,,,,,
45058.98,0.00032,71.78,,,,,,,
45059.01,0.00035,73.92,,,,,,,
45059.04,0.00038,76.16,,,,,,,
45059.07,0.0004,78.44,,,,,,,
45059.1,0.00043,80.96,,,,,,,
45059.13,0.00045,83.7,,,,,,,
45059.14,0.00048,86.4,,,,,,,
45059.16,0.0005,89.05,,,,,,,
45059.18,0.00053,91.6,,,,,,,
45059.2,0.00056,94.08,,,,,,,
45059.21,0.00058,96.5,,,,,,,
45059.23,0.00061,99.05,,,,,,,
45059.25,0.00063,101.48,,,,,,,
45059.27,0.00066,103.87,,,,,,,
45059.28,0.00069,106.07,,,,,,,
45059.3,0.00071,108.12,,,,,,,
45059.32,0.00074,110.35,,,,,,,
45059.34,0.00076,112.4,,,,,,,
45059.36,0.00079,114.27,,,,,,,
45059.38,0.00081,116.13,,,,,,,
45059.4,0.00084,117.84,,,,,,,
45059.43,0.00087,119.82,,,,,,,
45059.45,0.00089,121.52,,,,,,,
45059.48,0.00092,123.15,,,,,,,
45059.51,0.00094,124.93,,,,,,,
45059.53,0.00097,126.63,,,,,,,
45059.56,0.00099,128.3,,,,,,,
45059.58,0.00102,129.87,,,,,,,
45059.6,0.00104,131.52,,,,,,,
45059.63,0.00107,133.0,,,,,,,
45059.65,0.00109,134.5,,,,,,,
45059.68,0.00112,136.08,,,,,,,
45059.7,0.00115,137.7,,,,,,,
45059.73,0.00117,139.21,,,,,,,
45059.76,0.0012,140.63,,,,,,,
45059.78,0.00122,142.08,,,,,,,
45059.81,0.00125,143.61,,,,,,,
45059.83,0.00127,144.98,,,,,,,
45059.83,0.00128,145.19,,,,,,,
45059.85,0.0013,146.37,,,,,,,
45059.88,0.00132,147.66,,,,,,,
45059.91,0.00135,149.04,,,,,,,
45059.93,0.00138,150.35,,,,,,,
45059.95,0.0014,151.42,,,,,,,
45059.98,0.00143,152.54,,,,,,,
45060.01,0.00145,153.01,,,,,,,
45060.14,0.00143,138.6,,,,,,,
45060.17,0.0014,133.82,,,,,,,
45060.19,0.00138,129.34,,,,,,,
45060.21,0.00135,125.06,,,,,,,
45060.23,0.00132,121.25,,,,,,,
45060.25,0.0013,117.65,,,,,,,
45060.27,0.00127,113.84,,,,,,,
45060.29,0.00125,110.4,,,,,,,
45060.31,0.00122,106.62,,,,,,,
45060.34,0.0012,102.91,,,,,,,
45060.36,0.00117,99.22,,,,,,,
45060.38,0.00115,95.57,,,,,,,
45060.41,0.00112,92.18,,,,,,,
45060.43,0.00109,89.2,,,,,,,
45060.46,0.00107,85.94,,,,,,,
45060.49,0.00104,81.91,,,,,,,
45060.52,0.00102,78.22,,,,,,,
45060.55,0.00099,74.98,,,,,,,
45060.58,0.00097,71.62,,,,,,,
45060.6,0.00094,68.52,,,,,,,
45060.63,0.00092,65.37,,,,,,,
45060.66,0.00089,61.94,,,,,,,
45060.68,0.00087,58.87,,,,,,,
45060.71,0.00084,55.91,,,,,,,
45060.73,0.00082,53.15,,,,,,,
45060.76,0.00079,50.29,,,,,,,
45060.78,0.00076,47.23,,,,,,,
45060.81,0.00074,44.26,,,,,,,
45060.84,0.00071,41.22,,,,,,,
45060.87,0.00069,38.39,,,,,,,
45060.89,0.00066,35.57,,,,,,,
45060.92,0.00064,32.25,,,,,,,
45060.95,0.00061,28.76,,,,,,,
45060.98,0.00059,25.91,,,,,,,
45061.01,0.00056,23.08,,,,,,,
45061.03,0.00054,20.13,,,,,,,
45061.06,0.00051,17.02,,,,,,,
45061.09,0.00049,14.05,,,,,,,
45061.12,0.00046,11.08,,,,,,,
45061.14,0.00044,8.19,,,,,,,
45061.16,0.00041,5.46,,,,,,,
45061.19,0.00038,2.71,,,,,,,
45061.22,0.00036,-0.05,,,,,,,
45061.24,0.00033,-2.62,,,,,,,
45061.27,0.00031,-5.4,,,,,,,
45061.3,0.00028,-8.06,,,,,,,
45061.33,0.00026,-10.69,,,,,,,
45061.35,0.00023,-13.03,,,,,,,
45061.39,0.00021,-15.13,,,,,,,
45061.5,0.00018,-16.2,,,,,,,
45061.56,0.00016,-19.09,,,,,,,
45061.59,0.00013,-21.68,,,,,,,
45061.63,0.00011,-24.04,,,,,,,
45061.66,8e-05,-26.38,,,,,,,
45061.69,6e-05,-28.82,,,,,,,
45061.72,3e-05,-31.5,,,,,,,
45061.75,0.0,-34.39,,,,,,,
45061.77,-2e-05,-37.37,,,,,,,
45061.79,-5e-05,-40.04,,,,,,,
45061.81,-7e-05,-42.79,,,,,,,
45061.83,-0.0001,-45.8,,,,,,,
45061.85,-0.00012,-49.13,,,,,,,
45061.87,-0.00015,-52.22,,,,,,,
45061.88,-0.00018,-55.16,,,,,,,
45061.9,-0.0002,-58.39,,,,,,,
45061.91,-0.00023,-61.16,,,,,,,
45061.93,-0.00025,-64.15,,,,,,,
45061.95,-0.00028,-66.83,,,,,,,
45061.96,-0.00031,-69.51,,,,,,,
45061.97,-0.00033,-72.18,,,,,,,
45061.99,-0.00036,-74.66,,,,,,,
45062.01,-0.00038,-77.21,,,,,,,
45062.02,-0.00041,-79.57,,,,,,,
45062.04,-0.00043,-81.93,,,,,,,
45062.05,-0.00046,-84.33,,,,,,,
45062.07,-0.00049,-86.54,,,,,,,
45062.09,-0.00051,-88.94,,,,,,,
45062.11,-0.00054,-91.16,,,,,,,
45062.13,-0.00056,-93.44,,,,,,,
45062.15,-0.00059,-95.49,,,,,,,
45062.18,-0.00062,-97.43,,,,,,,
45062.2,-0.00064,-99.39,,,,,,,
45062.22,-0.00067,-101.2,,,,,,,
45062.25,-0.00069,-103.3,,,,,,,
45062.27,-0.00072,-105.2,,,,,,,
45062.3,-0.00074,-107.0,,,,,,,
45062.32,-0.00077,-108.7,,,,,,,
45062.34,-0.00079,-110.5,,,,,,,
45062.38,-0.00082,-112.5,,,,,,,
45062.4,-0.00085,-114.3,,,,,,,
45062.43,-0.00087,-116.1,,,,,,,
45062.45,-0.0009,-117.8,,,,,,,
45062.48,-0.00092,-119.6,,,,,,,
45062.5,-0.00095,-121.3,,,,,,,
45062.53,-0.00097,-123.0,,,,,,,
45062.56,-0.001,-124.8,,,,,,,
45062.58,-0.00102,-126.5,,,,,,,
45062.61,-0.00105,-128.3,,,,,,,
45062.63,-0.00107,-129.9,,,,,,,
45062.66,-0.0011,-131.6,,,,,,,
45062.69,-0.00113,-133.4,,,,,,,
45062.71,-0.00115,-134.9,,,,,,,
45062.74,-0.00118,-136.5,,,,,,,
45062.76,-0.0012,-138.1,,,,,,,
45062.78,-0.00123,-139.5,,,,,,,
45062.81,-0.00125,-141.1,,,,,,,
45062.84,-0.00128,-142.7,,,,,,,
45062.86,-0.0013,-144.1,,,,,,,
45062.89,-0.00133,-145.7,,,,,,,
45062.91,-0.00135,-147.3,,,,,,,
45062.94,-0.00138,-148.8,,,,,,,
45062.97,-0.00141,-150.2,,,,,,,
45063.0,-0.00143,-151.4,,,,,,,
45063.05,-0.00146,-150.9,,,,,,,
45063.14,-0.00143,-141.4,,,,,,,
45063.16,-0.0014,-136.2,,,,,,,
45063.19,-0.00138,-131.8,,,,,,,
45063.21,-0.00135,-127.5,,,,,,,
45063.23,-0.00133,-123.4,,,,,,,
45063.25,-0.0013,-119.4,,,,,,,
45063.27,-0.00128,-115.6,,,,,,,
45063.29,-0.00125,-111.9,,,,,,,
45063.31,-0.00123,-108.3,,,,,,,
45063.34,-0.0012,-105.1,,,,,,,
45063.36,-0.00117,-101.6,,,,,,,
45063.38,-0.00115,-98.33,,,,,,,
45063.4,-0.00112,-95.14,,,,,,,
45063.43,-0.0011,-91.8,,,,,,,
45063.45,-0.00107,-88.41,,,,,,,
45063.48,-0.00105,-85.42,,,,,,,
45063.51,-0.00102,-82.16,,,,,,,
45063.53,-0.001,-78.68,,,,,,,
45063.56,-0.00097,-75.44,,,,,,,
45063.59,-0.00095,-72.38,,,,,,,
45063.62,-0.00092,-69.21,,,,,,,
45063.64,-0.0009,-66.12,,,,,,,
45063.67,-0.00087,-63.06,,,,,,,
45063.7,-0.00084,-60.05,,,,,,,
45063.72,-0.00082,-56.86,,,,,,,
45063.75,-0.00079,-54.02,,,,,,,
45063.77,-0.00077,-51.07,,,,,,,
45063.8,-0.00074,-48.11,,,,,,,
45063.83,-0.00072,-44.9,,,,,,,
45063.86,-0.00069,-41.75,,,,,,,
45063.89,-0.00067,-38.62,,,,,,,
45063.91,-0.00064,-35.3,,,,,,,
45063.95,-0.00062,-32.11,,,,,,,
45063.97,-0.00059,-29.12,,,,,,,
45064.0,-0.00057,-25.9,,,,,,,
45064.02,-0.00054,-22.68,,,,,,,
45064.05,-0.00051,-19.68,,,,,,,
45064.08,-0.00049,-16.73,,,,,,,
45064.1,-0.00046,-13.87,,,,,,,
45064.13,-0.00044,-10.87,,,,,,,
45064.16,-0.00041,-7.93,,,,,,,
45064.19,-0.00039,-4.95,,,,,,,
45064.22,-0.00036,-1.75,,,,,,,
45064.24,-0.00034,1.35,,,,,,,
45064.27,-0.00031,4.26,,,,,,,
45064.3,-0.00028,7.29,,,,,,,
45064.33,-0.00026,10.39,,,,,,,
45064.35,-0.00023,13.36,,,,,,,
45064.38,-0.00021,15.93,,,,,,,
45064.4,-0.00018,18.6,,,,,,,
45064.43,-0.00016,21.53,,,,,,,
