time,strain,stress,temperature,type,strain_rate,max_strain,title,youngs,poissons
0.0,3e-05,2.54,950,fatigue,0.001,0.00179,B-3,144000,0.3
0.04,6e-05,7.94,,,,,,,
0.07,8e-05,11.27,,,,,,,
0.11,0.00011,15.56,,,,,,,
0.14,0.00013,19.51,,,,,,,
0.17,0.00016,23.43,,,,,,,
0.18,0.00018,26.26,,,,,,,
0.22,0.00021,29.89,,,,,,,
0.25,0.00023,32.79,,,,,,,
0.28,0.00026,36.12,,,,,,,
0.32,0.00028,40.54,,,,,,,
0.37,0.00031,44.46,,,,,,,
0.39,0.00034,46.74,,,,,,,
0.43,0.00036,50.62,,,,,,,
0.48,0.00039,54.0,,,,,,,
0.51,0.00041,58.05,,,,,,,
0.54,0.00044,62.19,,,,,,,
0.57,0.00046,66.07,,,,,,,
0.59,0.00049,69.21,,,,,,,
0.62,0.00051,73.0,,,,,,,
0.64,0.00054,76.47,,,,,,,
0.67,0.00056,80.22,,,,,,,
0.7,0.00059,83.53,,,,,,,
0.72,0.00062,86.92,,,,,,,
0.75,0.00064,90.22,,,,,,,
0.76,0.00067,93.5,,,,,,,
0.78,0.00067,93.98,,,,,,,
0.79,0.00069,96.55,,,,,,,
0.82,0.00072,100.01,,,,,,,
0.86,0.00074,102.81,,,,,,,
0.89,0.00077,105.45,,,,,,,
0.93,0.00079,106.3,,,,,,,
1.06,0.00077,99.48,,,,,,,
1.11,0.00074,94.2,,,,,,,
1.14,0.00072,90.43,,,,,,,
1.17,0.00069,86.19,,,,,,,
1.2,0.00067,82.58,,,,,,,
1.23,0.00064,78.65,,,,,,,
1.26,0.00062,75.08,,,,,,,
1.28,0.00059,71.76,,,,,,,
1.32,0.00057,67.97,,,,,,,
1.34,0.00054,65.06,,,,,,,
1.39,0.00051,61.54,,,,,,,
1.42,0.00049,58.2,,,,,,,
1.45,0.00046,54.29,,,,,,,
1.48,0.00044,51.04,,,,,,,
1.51,0.00041,47.46,,,,,,,
1.56,0.00039,44.05,,,,,,,
1.59,0.00036,40.59,,,,,,,
1.62,0.00034,36.87,,,,,,,
1.67,0.00031,32.74,,,,,,,
1.7,0.00029,29.58,,,,,,,
1.72,0.00026,26.15,,,,,,,
1.75,0.00024,22.4,,,,,,,
1.78,0.00022,20.12,,,,,,,
1.78,0.00021,18.22,,,,,,,
1.81,0.00018,15.18,,,,,,,
1.84,0.00016,11.2,,,,,,,
1.87,0.00013,7.99,,,,,,,
1.9,0.00011,3.77,,,,,,,
1.93,8e-05,0.44,,,,,,,
1.97,6e-05,-3.13,,,,,,,
1.98,3e-05,-6.33,,,,,,,
2.01,1e-05,-9.34,,,,,,,
2.06,-2e-05,-13.39,,,,,,,
2.09,-5e-05,-15.72,,,,,,,
2.14,-7e-05,-18.38,,,,,,,
2.23,-0.0001,-24.43,,,,,,,
2.26,-0.00012,-28.53,,,,,,,
2.29,-0.00015,-30.82,,,,,,,
2.32,-0.00017,-36.38,,,,,,,
2.36,-0.0002,-41.2,,,,,,,
2.37,-0.00022,-43.87,,,,,,,
2.4,-0.00025,-48.09,,,,,,,
2.4,-0.00028,-50.76,,,,,,,
2.43,-0.0003,-54.69,,,,,,,
2.45,-0.00033,-57.46,,,,,,,
2.48,-0.00035,-61.33,,,,,,,
2.51,-0.00038,-64.97,,,,,,,
2.54,-0.0004,-68.33,,,,,,,
2.56,-0.00043,-70.63,,,,,,,
2.61,-0.00045,-75.19,,,,,,,
2.62,-0.00048,-77.5,,,,,,,
2.67,-0.00051,-82.16,,,,,,,
2.7,-0.00053,-85.5,,,,,,,
2.73,-0.00056,-88.26,,,,,,,
2.76,-0.00058,-91.76,,,,,,,
2.78,-0.00059,-92.78,,,,,,,
2.78,-0.00061,-94.54,,,,,,,
2.84,-0.00063,-100.1,,,,,,,
2.86,-0.00066,-102.3,,,,,,,
2.9,-0.00068,-105.9,,,,,,,
2.93,-0.00071,-109.2,,,,,,,
2.98,-0.00073,-111.4,,,,,,,
3.2,-0.00071,-102.1,,,,,,,
3.23,-0.00068,-97.95,,,,,,,
3.26,-0.00066,-93.68,,,,,,,
3.29,-0.00063,-89.45,,,,,,,
3.32,-0.00061,-85.56,,,,,,,
3.36,-0.00058,-81.5,,,,,,,
3.39,-0.00056,-77.45,,,,,,,
3.4,-0.00053,-74.11,,,,,,,
3.43,-0.00051,-70.17,,,,,,,
3.47,-0.00048,-66.61,,,,,,,
3.48,-0.00046,-62.72,,,,,,,
3.51,-0.00043,-58.63,,,,,,,
3.54,-0.0004,-55.3,,,,,,,
3.57,-0.00038,-51.53,,,,,,,
3.59,-0.00035,-47.63,,,,,,,
3.62,-0.00033,-44.19,,,,,,,
3.65,-0.0003,-40.49,,,,,,,
3.68,-0.00028,-36.89,,,,,,,
3.7,-0.00025,-33.32,,,,,,,
3.73,-0.00023,-29.91,,,,,,,
3.76,-0.0002,-26.44,,,,,,,
3.78,-0.00019,-24.97,,,,,,,
3.79,-0.00018,-22.85,,,,,,,
3.82,-0.00015,-19.47,,,,,,,
3.86,-0.00012,-15.89,,,,,,,
3.87,-0.0001,-12.17,,,,,,,
3.9,-7e-05,-8.64,,,,,,,
3.93,-5e-05,-4.99,,,,,,,
3.98,-2e-05,-0.31,,,,,,,
4.0,0.0,2.72,,,,,,,
4.03,3e-05,6.28,,,,,,,
4.06,5e-05,9.23,,,,,,,
4.09,8e-05,12.88,,,,,,,
4.12,0.0001,16.15,,,,,,,
4.14,0.00013,19.4,,,,,,,
4.17,0.00016,22.92,,,,,,,
4.2,0.00018,26.51,,,,,,,
4.23,0.00021,30.29,,,,,,,
4.26,0.00023,33.11,,,,,,,
4.29,0.00026,36.56,,,,,,,
4.32,0.00028,39.59,,,,,,,
4.36,0.00031,42.6,,,,,,,
4.4,0.00033,45.57,,,,,,,
4.45,0.00036,48.83,,,,,,,
4.48,0.00038,51.07,,,,,,,
4.53,0.00041,56.72,,,,,,,
4.57,0.00044,61.47,,,,,,,
4.59,0.00046,64.62,,,,,,,
4.61,0.00049,67.33,,,,,,,
4.65,0.00051,73.03,,,,,,,
4.67,0.00054,74.96,,,,,,,
4.7,0.00056,79.61,,,,,,,
4.72,0.00059,82.27,,,,,,,
4.75,0.00062,86.55,,,,,,,
4.78,0.00064,90.01,,,,,,,
4.78,0.00064,90.24,,,,,,,
4.79,0.00067,92.96,,,,,,,
4.82,0.00069,96.62,,,,,,,
4.86,0.00072,100.22,,,,,,,
4.87,0.00074,103.18,,,,,,,
4.9,0.00077,106.57,,,,,,,
4.93,0.00079,109.23,,,,,,,
4.97,0.00082,112.85,,,,,,,
5.0,0.00084,115.12,,,,,,,
5.07,0.00087,115.33,,,,,,,
5.17,0.00084,109.59,,,,,,,
5.2,0.00082,105.42,,,,,,,
5.23,0.00079,101.45,,,,,,,
5.26,0.00077,97.98,,,,,,,
5.29,0.00074,94.09,,,,,,,
5.32,0.00072,90.66,,,,,,,
5.37,0.00069,87.35,,,,,,,
5.42,0.00067,83.38,,,,,,,
5.47,0.00064,79.31,,,,,,,
5.51,0.00062,75.69,,,,,,,
5.54,0.00059,71.43,,,,,,,
5.59,0.00057,67.68,,,,,,,
5.62,0.00054,63.24,,,,,,,
5.67,0.00052,59.38,,,,,,,
5.7,0.00049,55.52,,,,,,,
5.73,0.00047,51.44,,,,,,,
5.75,0.00044,48.26,,,,,,,
5.78,0.00042,45.43,,,,,,,
5.78,0.00042,44.39,,,,,,,
5.81,0.00039,39.84,,,,,,,
5.84,0.00036,36.46,,,,,,,
5.86,0.00034,32.81,,,,,,,
5.89,0.00031,28.44,,,,,,,
5.92,0.00029,25.52,,,,,,,
5.95,0.00026,21.58,,,,,,,
5.97,0.00024,18.35,,,,,,,
6.0,0.00021,15.33,,,,,,,
6.03,0.00019,11.85,,,,,,,
6.06,0.00016,6.96,,,,,,,
6.09,0.00014,3.62,,,,,,,
6.11,0.00011,0.83,,,,,,,
6.14,9e-05,-1.91,,,,,,,
6.15,6e-05,-4.38,,,,,,,
6.18,3e-05,-8.99,,,,,,,
6.23,1e-05,-12.59,,,,,,,
6.26,-2e-05,-15.15,,,,,,,
6.31,-4e-05,-18.56,,,,,,,
6.36,-7e-05,-21.47,,,,,,,
6.42,-9e-05,-24.74,,,,,,,
6.45,-0.00012,-28.3,,,,,,,
6.5,-0.00014,-32.8,,,,,,,
6.53,-0.00017,-37.25,,,,,,,
6.54,-0.00019,-41.16,,,,,,,
6.56,-0.00022,-44.08,,,,,,,
6.59,-0.00025,-48.04,,,,,,,
6.61,-0.00027,-51.84,,,,,,,
6.64,-0.0003,-55.13,,,,,,,
6.65,-0.00032,-58.3,,,,,,,
6.68,-0.00035,-61.82,,,,,,,
6.7,-0.00037,-65.19,,,,,,,
6.73,-0.0004,-68.35,,,,,,,
6.76,-0.00042,-71.59,,,,,,,
6.78,-0.00043,-72.06,,,,,,,
6.79,-0.00045,-74.73,,,,,,,
6.84,-0.00047,-78.36,,,,,,,
6.87,-0.0005,-81.77,,,,,,,
6.9,-0.00052,-85.14,,,,,,,
6.93,-0.00055,-88.84,,,,,,,
6.97,-0.00058,-92.05,,,,,,,
7.0,-0.0006,-95.92,,,,,,,
7.03,-0.00063,-99.33,,,,,,,
7.06,-0.00065,-102.7,,,,,,,
7.09,-0.00068,-106.2,,,,,,,
7.11,-0.0007,-110.1,,,,,,,
7.14,-0.00073,-113.8,,,,,,,
7.15,-0.00075,-117.5,,,,,,,
7.18,-0.00078,-121.0,,,,,,,
7.2,-0.0008,-123.9,,,,,,,
7.22,-0.00083,-126.8,,,,,,,
7.25,-0.00085,-129.9,,,,,,,
7.28,-0.00088,-131.8,,,,,,,
7.48,-0.00086,-121.9,,,,,,,
7.5,-0.00083,-117.7,,,,,,,
7.53,-0.0008,-113.7,,,,,,,
7.56,-0.00078,-110.1,,,,,,,
7.59,-0.00075,-106.1,,,,,,,
7.61,-0.00073,-102.2,,,,,,,
7.64,-0.0007,-98.46,,,,,,,
7.67,-0.00068,-95.7,,,,,,,
7.68,-0.00065,-91.83,,,,,,,
7.72,-0.00062,-87.93,,,,,,,
7.75,-0.0006,-83.63,,,,,,,
7.78,-0.00057,-80.23,,,,,,,
7.79,-0.00055,-77.12,,,,,,,
7.82,-0.00052,-73.43,,,,,,,
7.86,-0.0005,-69.3,,,,,,,
7.89,-0.00047,-66.17,,,,,,,
7.9,-0.00045,-62.61,,,,,,,
7.93,-0.00042,-59.18,,,,,,,
7.97,-0.00039,-55.39,,,,,,,
8.0,-0.00037,-51.22,,,,,,,
8.03,-0.00034,-47.67,,,,,,,
8.06,-0.00032,-44.23,,,,,,,
8.07,-0.00029,-40.97,,,,,,,
8.11,-0.00027,-36.77,,,,,,,
8.14,-0.00024,-33.33,,,,,,,
8.17,-0.00022,-29.82,,,,,,,
8.2,-0.00019,-26.37,,,,,,,
18.26,-0.0002,40.48,,,,,,,
18.29,-0.00018,42.91,,,,,,,
18.34,-0.00015,45.41,,,,,,,
18.39,-0.00013,48.76,,,,,,,
18.43,-0.0001,51.62,,,,,,,
18.48,-8e-05,55.68,,,,,,,
18.51,-5e-05,59.52,,,,,,,
18.54,-3e-05,62.92,,,,,,,
18.57,-0.0,66.72,,,,,,,
18.59,2e-05,70.13,,,,,,,
18.62,5e-05,72.97,,,,,,,
18.65,7e-05,77.52,,,,,,,
18.68,0.0001,80.43,,,,,,,
18.7,0.00013,83.78,,,,,,,
18.73,0.00015,86.71,,,,,,,
18.75,0.00018,89.93,,,,,,,
18.78,0.0002,92.86,,,,,,,
18.78,0.0002,93.53,,,,,,,
18.81,0.00023,96.7,,,,,,,
18.82,0.00025,99.86,,,,,,,
18.86,0.00028,102.7,,,,,,,
18.89,0.00031,105.79,,,,,,,
18.92,0.00033,108.69,,,,,,,
18.95,0.00036,112.17,,,,,,,
18.98,0.00038,114.44,,,,,,,
19.01,0.00041,117.63,,,,,,,
19.04,0.00043,120.77,,,,,,,
19.07,0.00046,123.85,,,,,,,
19.09,0.00048,126.77,,,,,,,
19.12,0.00051,129.88,,,,,,,
19.15,0.00054,132.89,,,,,,,
19.18,0.00056,135.82,,,,,,,
19.2,0.00059,137.9,,,,,,,
19.23,0.00061,140.41,,,,,,,
19.25,0.00064,142.53,,,,,,,
19.26,0.00066,143.06,,,,,,,
19.28,0.00069,143.95,,,,,,,
19.28,0.00072,144.43,,,,,,,
19.28,0.00074,145.06,,,,,,,
19.29,0.00077,145.81,,,,,,,
19.29,0.0008,146.03,,,,,,,
19.29,0.00082,147.09,,,,,,,
19.31,0.00085,147.77,,,,,,,
19.31,0.00088,148.86,,,,,,,
19.32,0.0009,149.25,,,,,,,
19.34,0.00093,150.41,,,,,,,
19.36,0.00096,151.47,,,,,,,
19.37,0.00098,152.34,,,,,,,
19.4,0.00101,153.26,,,,,,,
19.43,0.00103,154.19,,,,,,,
19.47,0.00106,154.92,,,,,,,
19.51,0.00108,156.4,,,,,,,
19.56,0.00111,158.6,,,,,,,
19.59,0.00113,160.69,,,,,,,
19.62,0.00116,162.86,,,,,,,
19.64,0.00118,161.54,,,,,,,
19.65,0.00121,162.0,,,,,,,
19.65,0.00124,162.28,,,,,,,
19.65,0.00127,162.51,,,,,,,
19.67,0.0013,163.08,,,,,,,
19.67,0.00133,163.21,,,,,,,
19.67,0.00136,163.36,,,,,,,
19.67,0.00138,163.78,,,,,,,
19.67,0.00141,163.72,,,,,,,
19.68,0.00144,164.4,,,,,,,
19.68,0.00146,164.34,,,,,,,
19.68,0.00149,164.64,,,,,,,
19.7,0.00152,164.84,,,,,,,
19.75,0.00154,161.91,,,,,,,
19.78,0.00154,157.21,,,,,,,
19.79,0.00152,152.31,,,,,,,
19.82,0.00149,146.2,,,,,,,
19.84,0.00146,141.94,,,,,,,
19.86,0.00144,137.58,,,,,,,
19.87,0.00141,132.82,,,,,,,
19.89,0.00139,128.9,,,,,,,
19.9,0.00136,125.41,,,,,,,
19.92,0.00134,122.1,,,,,,,
19.93,0.00131,117.7,,,,,,,
19.95,0.00129,113.86,,,,,,,
19.97,0.00126,109.58,,,,,,,
19.98,0.00124,106.1,,,,,,,
20.0,0.00121,102.84,,,,,,,
20.03,0.00118,98.38,,,,,,,
20.04,0.00116,94.82,,,,,,,
20.06,0.00113,92.02,,,,,,,
20.09,0.00111,88.25,,,,,,,
20.11,0.00108,85.28,,,,,,,
20.12,0.00106,82.02,,,,,,,
20.17,0.00103,76.91,,,,,,,
20.2,0.00101,72.72,,,,,,,
20.22,0.00098,69.11,,,,,,,
20.25,0.00095,65.38,,,,,,,
20.28,0.00093,62.03,,,,,,,
20.31,0.0009,58.85,,,,,,,
20.32,0.00088,55.95,,,,,,,
20.36,0.00085,52.39,,,,,,,
20.39,0.00083,47.44,,,,,,,
20.43,0.0008,43.32,,,,,,,
20.45,0.00078,40.75,,,,,,,
20.48,0.00075,36.94,,,,,,,
20.51,0.00073,33.25,,,,,,,
20.53,0.0007,30.87,,,,,,,
20.56,0.00067,26.65,,,,,,,
20.59,0.00065,22.2,,,,,,,
20.62,0.00062,18.83,,,,,,,
20.65,0.0006,15.98,,,,,,,
20.67,0.00057,12.6,,,,,,,
20.72,0.00055,8.29,,,,,,,
20.73,0.00052,5.49,,,,,,,
20.76,0.0005,1.73,,,,,,,
20.78,0.00049,1.02,,,,,,,
20.79,0.00047,-1.78,,,,,,,
20.82,0.00044,-5.68,,,,,,,
20.84,0.00042,-7.73,,,,,,,
20.9,0.00039,-13.3,,,,,,,
20.92,0.00037,-16.2,,,,,,,
20.95,0.00034,-18.94,,,,,,,
21.0,0.00032,-22.16,,,,,,,
21.04,0.00029,-24.57,,,,,,,
21.06,0.00027,-25.73,,,,,,,
21.15,0.00024,-32.57,,,,,,,
21.18,0.00022,-36.8,,,,,,,
21.22,0.00019,-40.66,,,,,,,
21.22,0.00016,-43.09,,,,,,,
21.23,0.00014,-44.98,,,,,,,
21.25,0.00011,-47.73,,,,,,,
21.29,9e-05,-54.12,,,,,,,
21.31,6e-05,-57.1,,,,,,,
21.34,4e-05,-59.91,,,,,,,
21.36,1e-05,-61.97,,,,,,,
21.37,-2e-05,-64.15,,,,,,,
21.39,-4e-05,-66.59,,,,,,,
21.43,-7e-05,-70.31,,,,,,,
21.47,-9e-05,-74.12,,,,,,,
21.51,-0.00012,-77.45,,,,,,,
21.54,-0.00014,-81.08,,,,,,,
21.56,-0.00017,-83.03,,,,,,,
21.59,-0.00019,-85.62,,,,,,,
21.62,-0.00022,-88.07,,,,,,,
21.65,-0.00024,-91.15,,,,,,,
21.68,-0.00027,-94.91,,,,,,,
21.72,-0.00029,-97.62,,,,,,,
21.75,-0.00032,-101.2,,,,,,,
21.78,-0.00034,-103.3,,,,,,,
21.78,-0.00034,-104.3,,,,,,,
21.81,-0.00037,-108.2,,,,,,,
21.82,-0.0004,-111.0,,,,,,,
21.86,-0.00042,-114.4,,,,,,,
21.87,-0.00045,-118.0,,,,,,,
21.89,-0.00047,-121.3,,,,,,,
21.9,-0.0005,-124.4,,,,,,,
21.93,-0.00052,-127.5,,,,,,,
21.95,-0.00055,-130.6,,,,,,,
21.97,-0.00058,-133.6,,,,,,,
21.98,-0.0006,-136.4,,,,,,,
22.0,-0.00063,-139.6,,,,,,,
22.01,-0.00065,-142.3,,,,,,,
22.03,-0.00068,-144.4,,,,,,,
22.03,-0.00071,-144.2,,,,,,,
22.04,-0.00073,-145.2,,,,,,,
22.04,-0.00076,-145.7,,,,,,,
22.04,-0.00079,-146.6,,,,,,,
22.06,-0.00082,-146.9,,,,,,,
22.06,-0.00085,-147.8,,,,,,,
22.06,-0.00087,-147.9,,,,,,,
22.06,-0.0009,-148.9,,,,,,,
22.07,-0.00092,-149.7,,,,,,,
22.07,-0.00095,-150.3,,,,,,,
22.09,-0.00098,-151.4,,,,,,,
22.11,-0.001,-152.5,,,,,,,
22.14,-0.00103,-152.8,,,,,,,
22.15,-0.00105,-153.1,,,,,,,
22.22,-0.00108,-152.2,,,,,,,
22.31,-0.0011,-152.3,,,,,,,
22.36,-0.00113,-153.9,,,,,,,
22.4,-0.00115,-156.6,,,,,,,
22.43,-0.00118,-159.2,,,,,,,
22.47,-0.0012,-161.2,,,,,,,
22.5,-0.00123,-163.9,,,,,,,
22.51,-0.00125,-165.6,,,,,,,
22.53,-0.00128,-160.6,,,,,,,
22.54,-0.00131,-160.9,,,,,,,
22.54,-0.00134,-160.6,,,,,,,
22.54,-0.00138,-160.8,,,,,,,
22.54,-0.00141,-161.2,,,,,,,
22.56,-0.00144,-161.1,,,,,,,
22.56,-0.00147,-161.0,,,,,,,
22.56,-0.0015,-161.3,,,,,,,
22.56,-0.00152,-161.3,,,,,,,
22.56,-0.00156,-161.3,,,,,,,
22.56,-0.00159,-161.2,,,,,,,
22.56,-0.00162,-161.3,,,,,,,
22.57,-0.00165,-160.9,,,,,,,
22.57,-0.00168,-160.9,,,,,,,
22.59,-0.00171,-160.3,,,,,,,
22.64,-0.00168,-144.4,,,,,,,
22.65,-0.00165,-138.9,,,,,,,
22.67,-0.00163,-134.3,,,,,,,
22.68,-0.0016,-129.4,,,,,,,
22.68,-0.00157,-125.1,,,,,,,
22.7,-0.00155,-121.0,,,,,,,
22.72,-0.00152,-116.8,,,,,,,
22.72,-0.00149,-112.9,,,,,,,
22.73,-0.00147,-109.0,,,,,,,
22.73,-0.00144,-105.1,,,,,,,
22.75,-0.00142,-101.5,,,,,,,
22.75,-0.00139,-98.0,,,,,,,
22.76,-0.00136,-94.03,,,,,,,
22.78,-0.00134,-90.75,,,,,,,
22.78,-0.00131,-87.29,,,,,,,
22.79,-0.00128,-83.9,,,,,,,
22.81,-0.00126,-80.37,,,,,,,
22.81,-0.00123,-76.89,,,,,,,
22.82,-0.0012,-73.46,,,,,,,
22.84,-0.00118,-70.19,,,,,,,
22.86,-0.00115,-66.73,,,,,,,
22.87,-0.00113,-63.68,,,,,,,
22.89,-0.0011,-60.45,,,,,,,
22.9,-0.00107,-57.48,,,,,,,
22.92,-0.00105,-54.47,,,,,,,
22.95,-0.00102,-51.01,,,,,,,
22.97,-0.001,-47.93,,,,,,,
23.0,-0.00097,-44.34,,,,,,,
23.03,-0.00095,-40.93,,,,,,,
23.06,-0.00092,-37.59,,,,,,,
23.11,-0.0009,-34.01,,,,,,,
23.14,-0.00087,-30.49,,,,,,,
23.17,-0.00085,-26.77,,,,,,,
23.2,-0.00082,-23.21,,,,,,,
23.23,-0.0008,-19.37,,,,,,,
23.26,-0.00077,-16.16,,,,,,,
23.29,-0.00074,-12.64,,,,,,,
23.31,-0.00072,-9.06,,,,,,,
23.36,-0.00069,-5.05,,,,,,,
23.37,-0.00067,-0.88,,,,,,,
23.4,-0.00064,1.53,,,,,,,
23.43,-0.00062,5.49,,,,,,,
23.47,-0.00059,9.4,,,,,,,
23.5,-0.00057,12.49,,,,,,,
23.51,-0.00054,16.01,,,,,,,
23.54,-0.00052,19.62,,,,,,,
23.57,-0.00049,22.69,,,,,,,
23.59,-0.00046,25.7,,,,,,,
23.62,-0.00044,28.7,,,,,,,
23.65,-0.00041,31.86,,,,,,,
23.68,-0.00039,35.36,,,,,,,
23.7,-0.00036,38.06,,,,,,,
23.73,-0.00034,40.63,,,,,,,
23.78,-0.00031,43.41,,,,,,,
23.78,-0.00031,43.55,,,,,,,
23.81,-0.00029,46.43,,,,,,,
23.86,-0.00026,48.8,,,,,,,
47.53,-0.0002,26.46,,,,,,,
47.54,-0.00018,28.4,,,,,,,
47.57,-0.00015,32.73,,,,,,,
47.61,-0.00013,36.19,,,,,,,
47.64,-0.0001,38.44,,,,,,,
47.65,-8e-05,40.84,,,,,,,
47.68,-5e-05,43.6,,,,,,,
47.73,-2e-05,45.81,,,,,,,
47.78,-0.0,48.74,,,,,,,
47.79,0.0,50.12,,,,,,,
47.82,3e-05,52.81,,,,,,,
47.87,5e-05,57.19,,,,,,,
47.9,8e-05,59.28,,,,,,,
47.93,0.0001,63.45,,,,,,,
47.97,0.00013,66.96,,,,,,,
47.98,0.00015,69.53,,,,,,,
48.01,0.00018,73.6,,,,,,,
48.03,0.0002,75.78,,,,,,,
48.06,0.00023,79.96,,,,,,,
48.07,0.00026,82.11,,,,,,,
48.11,0.00028,85.95,,,,,,,
48.14,0.00031,89.59,,,,,,,
48.15,0.00033,91.67,,,,,,,
48.18,0.00036,95.32,,,,,,,
48.2,0.00038,97.22,,,,,,,
48.23,0.00041,100.42,,,,,,,
48.26,0.00043,103.36,,,,,,,
48.28,0.00046,105.03,,,,,,,
48.31,0.00048,108.01,,,,,,,
48.34,0.00051,110.92,,,,,,,
48.37,0.00054,113.42,,,,,,,
48.4,0.00056,115.08,,,,,,,
48.42,0.00059,117.69,,,,,,,
48.45,0.00061,120.12,,,,,,,
48.48,0.00064,122.75,,,,,,,
48.51,0.00066,124.94,,,,,,,
48.54,0.00069,127.3,,,,,,,
48.56,0.00071,129.81,,,,,,,
48.59,0.00074,132.12,,,,,,,
48.62,0.00077,134.31,,,,,,,
48.65,0.00079,136.95,,,,,,,
48.67,0.00082,139.15,,,,,,,
48.7,0.00084,141.92,,,,,,,
48.72,0.00087,144.5,,,,,,,
48.73,0.00089,147.41,,,,,,,
48.75,0.00092,149.78,,,,,,,
48.78,0.00094,152.15,,,,,,,
48.78,0.00094,152.45,,,,,,,
48.79,0.00097,154.68,,,,,,,
48.81,0.00099,157.31,,,,,,,
48.82,0.00102,159.81,,,,,,,
48.84,0.00105,161.7,,,,,,,
48.86,0.00107,162.81,,,,,,,
48.87,0.0011,164.03,,,,,,,
48.87,0.00112,164.94,,,,,,,
48.89,0.00115,164.72,,,,,,,
48.9,0.00118,165.7,,,,,,,
48.9,0.0012,166.33,,,,,,,
48.9,0.00123,167.09,,,,,,,
48.92,0.00126,167.76,,,,,,,
48.92,0.00128,168.79,,,,,,,
48.93,0.00131,169.94,,,,,,,
48.97,0.00134,171.02,,,,,,,
49.0,0.00136,171.55,,,,,,,
49.03,0.00139,172.22,,,,,,,
49.04,0.00141,172.63,,,,,,,
49.09,0.00144,171.21,,,,,,,
49.25,0.00141,152.83,,,,,,,
49.28,0.00139,147.17,,,,,,,
49.31,0.00136,141.97,,,,,,,
49.32,0.00134,137.23,,,,,,,
49.36,0.00131,132.69,,,,,,,
49.37,0.00129,128.76,,,,,,,
49.4,0.00126,124.37,,,,,,,
49.42,0.00123,120.82,,,,,,,
49.43,0.00121,116.98,,,,,,,
49.47,0.00118,113.25,,,,,,,
49.48,0.00116,107.89,,,,,,,
49.51,0.00113,103.89,,,,,,,
49.53,0.0011,100.77,,,,,,,
49.56,0.00108,97.16,,,,,,,
49.57,0.00105,93.42,,,,,,,
49.61,0.00103,89.82,,,,,,,
49.64,0.001,85.86,,,,,,,
49.67,0.00098,82.0,,,,,,,
49.68,0.00095,78.46,,,,,,,
49.72,0.00093,74.88,,,,,,,
49.75,0.0009,70.94,,,,,,,
49.78,0.00088,67.92,,,,,,,
49.78,0.00087,67.64,,,,,,,
49.81,0.00085,64.06,,,,,,,
49.82,0.00082,60.5,,,,,,,
49.87,0.0008,55.7,,,,,,,
49.9,0.00077,52.15,,,,,,,
49.93,0.00075,47.72,,,,,,,
49.95,0.00072,45.19,,,,,,,
49.97,0.0007,42.76,,,,,,,
50.0,0.00067,40.09,,,,,,,
50.03,0.00064,35.14,,,,,,,
50.06,0.00062,32.77,,,,,,,
50.07,0.00059,30.1,,,,,,,
50.11,0.00057,26.46,,,,,,,
50.14,0.00054,22.5,,,,,,,
50.17,0.00052,18.97,,,,,,,
50.2,0.00049,15.86,,,,,,,
50.25,0.00047,10.97,,,,,,,
50.26,0.00044,8.79,,,,,,,
50.28,0.00041,5.89,,,,,,,
50.31,0.00039,3.14,,,,,,,
50.36,0.00036,-2.73,,,,,,,
50.37,0.00034,-5.59,,,,,,,
50.39,0.00031,-7.6,,,,,,,
50.42,0.00029,-10.17,,,,,,,
50.45,0.00026,-13.39,,,,,,,
50.5,0.00024,-17.4,,,,,,,
50.53,0.00021,-20.33,,,,,,,
50.56,0.00019,-22.05,,,,,,,
50.61,0.00016,-24.08,,,,,,,
50.68,0.00013,-29.32,,,,,,,
50.73,0.00011,-33.51,,,,,,,
50.75,8e-05,-37.42,,,,,,,
50.76,6e-05,-39.47,,,,,,,
50.78,5e-05,-40.56,,,,,,,
50.79,3e-05,-44.03,,,,,,,
50.81,1e-05,-46.86,,,,,,,
50.82,-2e-05,-49.95,,,,,,,
50.84,-4e-05,-52.65,,,,,,,
50.87,-7e-05,-55.59,,,,,,,
50.89,-9e-05,-58.4,,,,,,,
50.92,-0.00012,-61.19,,,,,,,
50.93,-0.00015,-64.07,,,,,,,
50.97,-0.00017,-66.76,,,,,,,
51.0,-0.0002,-69.54,,,,,,,
51.03,-0.00022,-71.94,,,,,,,
51.06,-0.00025,-74.61,,,,,,,
51.09,-0.00027,-77.3,,,,,,,
51.12,-0.0003,-79.62,,,,,,,
51.15,-0.00032,-82.63,,,,,,,
51.18,-0.00035,-85.13,,,,,,,
51.22,-0.00038,-88.09,,,,,,,
51.25,-0.0004,-90.73,,,,,,,
51.28,-0.00043,-93.67,,,,,,,
51.31,-0.00045,-96.13,,,,,,,
51.34,-0.00048,-99.14,,,,,,,
51.36,-0.0005,-102.2,,,,,,,
51.39,-0.00053,-105.1,,,,,,,
51.42,-0.00055,-108.3,,,,,,,
51.43,-0.00058,-111.1,,,,,,,
51.45,-0.0006,-114.4,,,,,,,
51.47,-0.00063,-117.6,,,,,,,
51.5,-0.00065,-120.3,,,,,,,
51.51,-0.00068,-123.2,,,,,,,
51.53,-0.00071,-126.0,,,,,,,
51.54,-0.00073,-128.8,,,,,,,
51.56,-0.00076,-131.6,,,,,,,
51.57,-0.00078,-134.2,,,,,,,
51.59,-0.00081,-136.5,,,,,,,
51.61,-0.00083,-139.1,,,,,,,
51.62,-0.00086,-141.6,,,,,,,
51.64,-0.00088,-143.9,,,,,,,
51.65,-0.00091,-146.3,,,,,,,
51.67,-0.00094,-148.5,,,,,,,
51.68,-0.00096,-149.7,,,,,,,
51.7,-0.00099,-151.4,,,,,,,
51.72,-0.00101,-153.2,,,,,,,
51.73,-0.00104,-154.5,,,,,,,
51.75,-0.00107,-155.1,,,,,,,
51.75,-0.00109,-156.0,,,,,,,
51.76,-0.00112,-157.1,,,,,,,
51.78,-0.00115,-157.9,,,,,,,
51.78,-0.00115,-157.8,,,,,,,
51.79,-0.00117,-158.9,,,,,,,
51.81,-0.0012,-160.1,,,,,,,
51.82,-0.00123,-161.2,,,,,,,
51.86,-0.00125,-161.7,,,,,,,
51.89,-0.00128,-162.4,,,,,,,
51.92,-0.0013,-163.1,,,,,,,
51.95,-0.00133,-163.7,,,,,,,
52.0,-0.00135,-164.5,,,,,,,
52.03,-0.00138,-165.7,,,,,,,
52.06,-0.0014,-166.2,,,,,,,
52.09,-0.00143,-166.1,,,,,,,
52.15,-0.00145,-162.4,,,,,,,
52.23,-0.00143,-150.5,,,,,,,
52.26,-0.0014,-144.8,,,,,,,
52.28,-0.00138,-139.5,,,,,,,
52.31,-0.00135,-134.7,,,,,,,
52.32,-0.00133,-130.1,,,,,,,
52.36,-0.0013,-125.1,,,,,,,
52.37,-0.00127,-121.6,,,,,,,
52.39,-0.00125,-117.9,,,,,,,
52.4,-0.00122,-113.7,,,,,,,
52.43,-0.0012,-109.8,,,,,,,
52.45,-0.00117,-105.7,,,,,,,
52.48,-0.00114,-101.0,,,,,,,
52.5,-0.00112,-98.17,,,,,,,
52.51,-0.00109,-94.94,,,,,,,
52.54,-0.00107,-90.56,,,,,,,
52.57,-0.00104,-87.06,,,,,,,
52.59,-0.00102,-83.42,,,,,,,
52.62,-0.00099,-78.74,,,,,,,
52.65,-0.00097,-75.23,,,,,,,
52.68,-0.00094,-71.87,,,,,,,
52.7,-0.00092,-67.86,,,,,,,
52.73,-0.00089,-64.0,,,,,,,
52.76,-0.00086,-60.62,,,,,,,
52.78,-0.00086,-59.14,,,,,,,
52.79,-0.00084,-56.49,,,,,,,
52.82,-0.00081,-52.55,,,,,,,
52.86,-0.00079,-49.08,,,,,,,
52.87,-0.00076,-45.84,,,,,,,
52.9,-0.00074,-42.46,,,,,,,
52.93,-0.00071,-38.94,,,,,,,
52.97,-0.00069,-35.13,,,,,,,
53.0,-0.00066,-30.43,,,,,,,
53.01,-0.00063,-27.64,,,,,,,
53.04,-0.00061,-24.48,,,,,,,
53.07,-0.00058,-20.93,,,,,,,
53.09,-0.00056,-17.99,,,,,,,
53.12,-0.00053,-15.2,,,,,,,
53.14,-0.00051,-12.46,,,,,,,
53.17,-0.00048,-8.99,,,,,,,
53.2,-0.00046,-6.34,,,,,,,
53.22,-0.00043,-3.11,,,,,,,
53.25,-0.00041,0.04,,,,,,,
53.28,-0.00038,3.24,,,,,,,
53.31,-0.00036,6.52,,,,,,,
53.34,-0.00033,9.45,,,,,,,
53.37,-0.00031,12.71,,,,,,,
53.39,-0.00028,15.49,,,,,,,
53.42,-0.00025,18.89,,,,,,,
53.45,-0.00023,22.04,,,,,,,
53.48,-0.0002,24.83,,,,,,,
102.75,0.00131,167.61,,,,,,,
102.76,0.00134,167.14,,,,,,,
102.78,0.00136,167.72,,,,,,,
102.78,0.00137,167.9,,,,,,,
102.79,0.00139,168.31,,,,,,,
102.81,0.00142,169.0,,,,,,,
102.82,0.00144,168.67,,,,,,,
102.87,0.00147,166.42,,,,,,,
102.98,0.00144,148.56,,,,,,,
103.01,0.00142,142.94,,,,,,,
103.03,0.00139,137.94,,,,,,,
103.04,0.00137,133.34,,,,,,,
103.07,0.00134,128.57,,,,,,,
103.09,0.00131,124.59,,,,,,,
103.11,0.00129,120.32,,,,,,,
103.12,0.00126,116.6,,,,,,,
103.15,0.00124,112.35,,,,,,,
103.17,0.00121,108.35,,,,,,,
103.18,0.00119,104.59,,,,,,,
103.22,0.00116,100.86,,,,,,,
103.23,0.00114,97.17,,,,,,,
103.25,0.00111,93.17,,,,,,,
103.28,0.00108,89.53,,,,,,,
103.31,0.00106,85.41,,,,,,,
103.32,0.00103,81.84,,,,,,,
103.36,0.00101,77.81,,,,,,,
103.39,0.00098,73.98,,,,,,,
103.42,0.00096,69.81,,,,,,,
103.45,0.00093,66.27,,,,,,,
103.48,0.00091,62.19,,,,,,,
103.51,0.00088,58.36,,,,,,,
103.53,0.00085,54.29,,,,,,,
103.56,0.00083,51.11,,,,,,,
103.59,0.0008,47.04,,,,,,,
103.62,0.00078,43.24,,,,,,,
103.65,0.00075,40.11,,,,,,,
103.67,0.00073,36.92,,,,,,,
103.7,0.0007,32.86,,,,,,,
103.73,0.00068,28.87,,,,,,,
103.76,0.00065,24.73,,,,,,,
103.78,0.00065,24.37,,,,,,,
103.79,0.00062,22.49,,,,,,,
103.82,0.0006,18.59,,,,,,,
103.84,0.00057,15.57,,,,,,,
103.87,0.00055,12.03,,,,,,,
103.9,0.00052,8.79,,,,,,,
103.93,0.0005,5.62,,,,,,,
103.95,0.00047,2.14,,,,,,,
103.98,0.00045,-0.75,,,,,,,
104.01,0.00042,-4.42,,,,,,,
104.04,0.0004,-7.59,,,,,,,
104.07,0.00037,-11.15,,,,,,,
104.09,0.00034,-14.04,,,,,,,
104.12,0.00032,-17.08,,,,,,,
104.15,0.00029,-19.09,,,,,,,
104.2,0.00027,-21.37,,,,,,,
104.25,0.00024,-24.11,,,,,,,
104.31,0.00022,-26.85,,,,,,,
104.36,0.00019,-31.34,,,,,,,
104.39,0.00017,-35.85,,,,,,,
104.4,0.00014,-38.65,,,,,,,
104.43,0.00012,-42.4,,,,,,,
104.45,9e-05,-46.01,,,,,,,
104.47,6e-05,-48.6,,,,,,,
104.5,4e-05,-52.34,,,,,,,
104.51,1e-05,-55.63,,,,,,,
104.53,-1e-05,-57.48,,,,,,,
104.56,-4e-05,-60.93,,,,,,,
104.57,-6e-05,-63.79,,,,,,,
104.61,-9e-05,-65.85,,,,,,,
104.64,-0.00011,-68.76,,,,,,,
104.67,-0.00014,-71.68,,,,,,,
104.7,-0.00017,-74.26,,,,,,,
104.73,-0.00019,-76.54,,,,,,,
104.76,-0.00022,-79.43,,,,,,,
104.78,-0.00023,-80.91,,,,,,,
104.79,-0.00024,-82.11,,,,,,,
104.82,-0.00027,-84.97,,,,,,,
104.86,-0.00029,-87.61,,,,,,,
104.89,-0.00032,-90.28,,,,,,,
104.9,-0.00034,-92.69,,,,,,,
104.93,-0.00037,-95.53,,,,,,,
104.97,-0.00039,-98.0,,,,,,,
105.0,-0.00042,-101.1,,,,,,,
105.03,-0.00045,-103.7,,,,,,,
105.04,-0.00047,-106.6,,,,,,,
105.06,-0.0005,-109.8,,,,,,,
105.09,-0.00052,-112.9,,,,,,,
105.11,-0.00055,-115.5,,,,,,,
105.12,-0.00057,-118.9,,,,,,,
105.14,-0.0006,-121.6,,,,,,,
105.15,-0.00063,-124.2,,,,,,,
105.17,-0.00065,-126.9,,,,,,,
105.2,-0.00068,-130.2,,,,,,,
105.22,-0.0007,-132.8,,,,,,,
105.23,-0.00073,-135.5,,,,,,,
105.25,-0.00076,-138.0,,,,,,,
105.26,-0.00078,-140.6,,,,,,,
105.28,-0.00081,-143.0,,,,,,,
105.29,-0.00083,-144.8,,,,,,,
105.31,-0.00086,-147.1,,,,,,,
105.32,-0.00089,-149.7,,,,,,,
105.34,-0.00091,-151.8,,,,,,,
105.37,-0.00094,-153.6,,,,,,,
105.39,-0.00096,-155.2,,,,,,,
105.4,-0.00099,-156.5,,,,,,,
105.42,-0.00101,-157.9,,,,,,,
105.43,-0.00104,-159.1,,,,,,,
105.45,-0.00106,-161.0,,,,,,,
105.47,-0.00109,-162.4,,,,,,,
105.5,-0.00112,-163.7,,,,,,,
105.51,-0.00114,-165.1,,,,,,,
105.53,-0.00117,-166.4,,,,,,,
105.56,-0.00119,-167.4,,,,,,,
105.57,-0.00122,-168.5,,,,,,,
105.61,-0.00124,-169.5,,,,,,,
105.62,-0.00127,-166.3,,,,,,,
105.64,-0.0013,-166.8,,,,,,,
105.64,-0.00132,-166.9,,,,,,,
105.64,-0.00135,-167.0,,,,,,,
105.65,-0.00138,-167.0,,,,,,,
105.65,-0.0014,-167.5,,,,,,,
105.67,-0.00143,-167.5,,,,,,,
105.67,-0.00146,-167.4,,,,,,,
105.7,-0.00148,-167.4,,,,,,,
105.73,-0.00151,-166.3,,,,,,,
105.78,-0.00151,-163.5,,,,,,,
105.92,-0.00148,-141.3,,,,,,,
105.93,-0.00146,-136.4,,,,,,,
105.97,-0.00143,-132.5,,,,,,,
106.0,-0.00141,-126.6,,,,,,,
106.01,-0.00138,-121.7,,,,,,,
106.03,-0.00135,-118.3,,,,,,,
106.04,-0.00133,-115.0,,,,,,,
106.06,-0.0013,-111.0,,,,,,,
106.09,-0.00128,-107.1,,,,,,,
106.11,-0.00125,-103.0,,,,,,,
106.12,-0.00122,-99.62,,,,,,,
106.15,-0.0012,-96.03,,,,,,,
106.17,-0.00117,-91.74,,,,,,,
106.2,-0.00115,-88.45,,,,,,,
106.22,-0.00112,-85.35,,,,,,,
106.25,-0.0011,-81.8,,,,,,,
106.28,-0.00107,-78.46,,,,,,,
106.29,-0.00105,-74.34,,,,,,,
106.32,-0.00102,-71.13,,,,,,,
106.36,-0.001,-67.75,,,,,,,
106.39,-0.00097,-64.23,,,,,,,
106.4,-0.00095,-60.76,,,,,,,
106.43,-0.00092,-56.38,,,,,,,
106.47,-0.00089,-53.2,,,,,,,
106.5,-0.00087,-49.76,,,,,,,
106.53,-0.00084,-46.23,,,,,,,
106.56,-0.00082,-42.75,,,,,,,
106.57,-0.00079,-40.05,,,,,,,
106.62,-0.00077,-35.37,,,,,,,
106.64,-0.00074,-31.78,,,,,,,
106.67,-0.00072,-28.72,,,,,,,
106.7,-0.00069,-25.23,,,,,,,
106.72,-0.00066,-22.1,,,,,,,
106.75,-0.00064,-18.58,,,,,,,
106.78,-0.00061,-16.03,,,,,,,
106.78,-0.00061,-15.7,,,,,,,
106.79,-0.00059,-12.54,,,,,,,
106.82,-0.00056,-9.15,,,,,,,
106.86,-0.00054,-6.26,,,,,,,
106.89,-0.00051,-2.95,,,,,,,
106.9,-0.00049,0.19,,,,,,,
106.93,-0.00046,3.24,,,,,,,
106.97,-0.00043,6.78,,,,,,,
107.0,-0.00041,9.9,,,,,,,
107.03,-0.00038,12.77,,,,,,,
107.04,-0.00036,16.3,,,,,,,
107.07,-0.00033,19.22,,,,,,,
107.11,-0.00031,22.01,,,,,,,
107.12,-0.00028,24.97,,,,,,,
107.15,-0.00026,28.02,,,,,,,
107.18,-0.00023,31.06,,,,,,,
107.22,-0.00021,34.44,,,,,,,
107.25,-0.00018,36.95,,,,,,,
107.28,-0.00016,39.43,,,,,,,
107.31,-0.00013,42.47,,,,,,,
107.34,-0.0001,44.63,,,,,,,
107.39,-8e-05,47.18,,,,,,,
107.43,-5e-05,50.49,,,,,,,
107.47,-3e-05,53.41,,,,,,,
107.5,-0.0,56.4,,,,,,,
107.53,2e-05,59.71,,,,,,,
107.56,5e-05,62.74,,,,,,,
107.59,8e-05,65.3,,,,,,,
107.61,0.0001,68.37,,,,,,,
107.64,0.00013,71.4,,,,,,,
107.67,0.00015,74.43,,,,,,,
107.68,0.00018,77.53,,,,,,,
107.72,0.0002,80.52,,,,,,,
107.75,0.00023,83.0,,,,,,,
107.76,0.00026,85.91,,,,,,,
107.78,0.00026,86.96,,,,,,,
107.79,0.00028,88.55,,,,,,,
107.81,0.00031,91.31,,,,,,,
107.84,0.00033,93.73,,,,,,,
107.86,0.00036,96.11,,,,,,,
107.89,0.00038,98.39,,,,,,,
107.92,0.00041,100.89,,,,,,,
107.95,0.00043,103.35,,,,,,,
107.98,0.00046,105.96,,,,,,,
108.0,0.00049,107.47,,,,,,,
108.04,0.00051,110.58,,,,,,,
108.06,0.00054,112.3,,,,,,,
108.09,0.00056,115.16,,,,,,,
108.12,0.00059,116.61,,,,,,,
108.15,0.00061,119.33,,,,,,,
108.18,0.00064,121.93,,,,,,,
108.22,0.00067,124.81,,,,,,,
108.23,0.00069,126.2,,,,,,,
108.26,0.00072,129.35,,,,,,,
108.28,0.00074,130.7,,,,,,,
108.31,0.00077,133.43,,,,,,,
108.32,0.00079,135.17,,,,,,,
108.36,0.00082,139.03,,,,,,,
108.37,0.00084,141.24,,,,,,,
108.4,0.00087,143.29,,,,,,,
108.42,0.0009,145.47,,,,,,,
108.43,0.00092,148.19,,,,,,,
108.45,0.00095,150.29,,,,,,,
108.47,0.00097,152.28,,,,,,,
108.48,0.001,154.37,,,,,,,
108.5,0.00102,156.32,,,,,,,
108.51,0.00105,158.5,,,,,,,
108.53,0.00108,160.18,,,,,,,
108.56,0.0011,162.17,,,,,,,
108.57,0.00113,160.99,,,,,,,
108.59,0.00116,161.56,,,,,,,
108.59,0.00118,162.11,,,,,,,
108.59,0.00121,162.5,,,,,,,
108.59,0.00124,162.92,,,,,,,
108.61,0.00127,163.15,,,,,,,
108.61,0.00129,163.8,,,,,,,
108.61,0.00132,164.2,,,,,,,
108.62,0.00135,164.75,,,,,,,
108.64,0.00137,165.71,,,,,,,
108.65,0.0014,165.92,,,,,,,
108.68,0.00142,165.86,,,,,,,
281.84,0.00133,158.09,,,,,,,
281.86,0.00136,159.29,,,,,,,
281.87,0.00138,159.9,,,,,,,
281.9,0.00141,160.49,,,,,,,
281.92,0.00143,159.98,,,,,,,
281.95,0.00146,158.82,,,,,,,
282.01,0.00149,150.58,,,,,,,
282.06,0.00146,142.34,,,,,,,
282.09,0.00143,135.21,,,,,,,
282.11,0.00141,129.24,,,,,,,
282.14,0.00138,124.92,,,,,,,
282.15,0.00136,120.38,,,,,,,
282.17,0.00133,116.14,,,,,,,
282.18,0.00131,111.35,,,,,,,
282.22,0.00128,106.92,,,,,,,
282.23,0.00126,103.17,,,,,,,
282.25,0.00123,99.37,,,,,,,
282.26,0.0012,95.75,,,,,,,
282.29,0.00118,91.33,,,,,,,
282.31,0.00115,88.0,,,,,,,
282.32,0.00113,84.31,,,,,,,
282.36,0.0011,81.16,,,,,,,
282.37,0.00108,77.0,,,,,,,
282.4,0.00105,73.09,,,,,,,
282.43,0.00102,69.13,,,,,,,
282.45,0.001,65.5,,,,,,,
282.48,0.00097,61.89,,,,,,,
282.51,0.00095,58.62,,,,,,,
282.54,0.00092,54.44,,,,,,,
282.56,0.0009,51.07,,,,,,,
282.59,0.00087,47.0,,,,,,,
282.62,0.00085,43.52,,,,,,,
282.65,0.00082,39.32,,,,,,,
282.68,0.0008,36.01,,,,,,,
282.72,0.00077,31.94,,,,,,,
282.75,0.00075,28.46,,,,,,,
282.78,0.00072,24.79,,,,,,,
282.78,0.00072,24.51,,,,,,,
282.79,0.00069,21.54,,,,,,,
282.82,0.00067,18.07,,,,,,,
282.86,0.00064,14.11,,,,,,,
282.87,0.00062,11.34,,,,,,,
282.9,0.00059,8.92,,,,,,,
282.93,0.00057,5.0,,,,,,,
282.97,0.00054,0.86,,,,,,,
283.0,0.00051,-1.91,,,,,,,
283.01,0.00049,-5.26,,,,,,,
283.04,0.00046,-8.37,,,,,,,
283.07,0.00044,-11.72,,,,,,,
283.11,0.00041,-15.05,,,,,,,
283.14,0.00039,-17.48,,,,,,,
283.18,0.00036,-20.13,,,,,,,
283.25,0.00034,-23.1,,,,,,,
283.28,0.00031,-24.82,,,,,,,
283.36,0.00028,-30.26,,,,,,,
283.37,0.00026,-33.38,,,,,,,
283.39,0.00023,-37.15,,,,,,,
283.42,0.00021,-40.32,,,,,,,
283.43,0.00018,-43.02,,,,,,,
283.45,0.00016,-46.64,,,,,,,
283.48,0.00013,-50.3,,,,,,,
283.5,0.0001,-52.84,,,,,,,
283.51,8e-05,-55.78,,,,,,,
283.54,5e-05,-58.57,,,,,,,
283.56,3e-05,-61.43,,,,,,,
283.59,0.0,-64.68,,,,,,,
283.62,-2e-05,-66.39,,,,,,,
283.65,-5e-05,-69.27,,,,,,,
283.68,-7e-05,-72.15,,,,,,,
283.7,-0.0001,-74.42,,,,,,,
283.75,-0.00012,-77.88,,,,,,,
283.78,-0.00014,-79.91,,,,,,,
283.78,-0.00015,-80.82,,,,,,,
283.81,-0.00017,-82.86,,,,,,,
283.84,-0.0002,-85.74,,,,,,,
283.86,-0.00022,-87.95,,,,,,,
283.9,-0.00025,-91.04,,,,,,,
283.93,-0.00028,-94.01,,,,,,,
283.97,-0.0003,-96.8,,,,,,,
283.98,-0.00033,-99.86,,,,,,,
284.01,-0.00035,-101.8,,,,,,,
284.03,-0.00038,-104.7,,,,,,,
284.06,-0.0004,-108.1,,,,,,,
284.07,-0.00043,-110.7,,,,,,,
284.11,-0.00045,-114.3,,,,,,,
284.12,-0.00048,-117.1,,,,,,,
284.14,-0.00051,-119.8,,,,,,,
284.15,-0.00053,-122.5,,,,,,,
284.17,-0.00056,-125.2,,,,,,,
284.18,-0.00058,-127.9,,,,,,,
284.2,-0.00061,-130.7,,,,,,,
284.22,-0.00064,-133.3,,,,,,,
284.23,-0.00066,-135.8,,,,,,,
284.25,-0.00069,-138.1,,,,,,,
284.26,-0.00071,-140.3,,,,,,,
284.28,-0.00074,-143.1,,,,,,,
284.29,-0.00076,-145.3,,,,,,,
284.31,-0.00079,-147.2,,,,,,,
284.32,-0.00081,-149.4,,,,,,,
284.34,-0.00084,-151.3,,,,,,,
284.37,-0.00086,-153.0,,,,,,,
284.39,-0.00089,-155.2,,,,,,,
284.4,-0.00092,-157.1,,,,,,,
284.43,-0.00094,-159.2,,,,,,,
284.45,-0.00097,-160.5,,,,,,,
284.47,-0.00099,-162.0,,,,,,,
284.48,-0.00102,-163.7,,,,,,,
284.51,-0.00104,-165.0,,,,,,,
284.53,-0.00107,-166.6,,,,,,,
284.56,-0.00109,-167.7,,,,,,,
284.57,-0.00112,-168.7,,,,,,,
284.59,-0.00115,-169.9,,,,,,,
284.62,-0.00117,-171.0,,,,,,,
284.64,-0.0012,-171.8,,,,,,,
284.65,-0.00122,-172.8,,,,,,,
284.68,-0.00125,-173.4,,,,,,,
284.7,-0.00127,-174.1,,,,,,,
284.73,-0.0013,-175.0,,,,,,,
284.75,-0.00132,-175.5,,,,,,,
284.78,-0.00135,-175.9,,,,,,,
284.78,-0.00135,-175.8,,,,,,,
284.79,-0.00138,-176.6,,,,,,,
284.82,-0.0014,-176.8,,,,,,,
284.84,-0.00143,-177.3,,,,,,,
284.87,-0.00145,-177.1,,,,,,,
284.9,-0.00148,-176.4,,,,,,,
284.93,-0.0015,-174.3,,,,,,,
285.06,-0.00148,-151.6,,,,,,,
285.07,-0.00145,-145.7,,,,,,,
285.09,-0.00143,-140.4,,,,,,,
285.12,-0.0014,-135.1,,,,,,,
285.14,-0.00137,-130.6,,,,,,,
285.15,-0.00135,-126.5,,,,,,,
285.17,-0.00132,-122.2,,,,,,,
285.18,-0.0013,-118.2,,,,,,,
285.2,-0.00127,-113.7,,,,,,,
285.23,-0.00125,-109.4,,,,,,,
285.25,-0.00122,-106.0,,,,,,,
285.26,-0.00119,-102.0,,,,,,,
285.28,-0.00117,-98.45,,,,,,,
285.31,-0.00114,-94.46,,,,,,,
285.32,-0.00112,-90.7,,,,,,,
285.36,-0.00109,-86.68,,,,,,,
285.37,-0.00107,-82.8,,,,,,,
285.4,-0.00104,-78.99,,,,,,,
285.43,-0.00102,-75.33,,,,,,,
285.45,-0.00099,-71.6,,,,,,,
285.48,-0.00096,-67.86,,,,,,,
285.51,-0.00094,-64.28,,,,,,,
285.53,-0.00091,-60.77,,,,,,,
285.56,-0.00089,-57.54,,,,,,,
285.59,-0.00086,-53.79,,,,,,,
285.62,-0.00084,-49.93,,,,,,,
285.64,-0.00081,-47.27,,,,,,,
285.67,-0.00079,-43.65,,,,,,,
285.7,-0.00076,-40.3,,,,,,,
285.73,-0.00073,-36.9,,,,,,,
285.76,-0.00071,-33.31,,,,,,,
285.78,-0.0007,-31.63,,,,,,,
285.78,-0.00068,-30.22,,,,,,,
285.81,-0.00066,-26.08,,,,,,,
285.84,-0.00063,-23.55,,,,,,,
285.87,-0.00061,-20.0,,,,,,,
285.89,-0.00058,-17.24,,,,,,,
285.92,-0.00056,-13.98,,,,,,,
285.95,-0.00053,-10.26,,,,,,,
285.98,-0.00051,-7.34,,,,,,,
286.0,-0.00048,-4.49,,,,,,,
286.03,-0.00045,-1.57,,,,,,,
286.04,-0.00043,1.14,,,,,,,
286.09,-0.0004,4.83,,,,,,,
286.12,-0.00038,8.19,,,,,,,
286.14,-0.00035,11.04,,,,,,,
286.17,-0.00033,14.57,,,,,,,
286.2,-0.0003,18.1,,,,,,,
286.23,-0.00028,20.3,,,,,,,
286.25,-0.00025,23.46,,,,,,,
286.28,-0.00022,27.05,,,,,,,
286.31,-0.0002,30.69,,,,,,,
286.34,-0.00017,33.37,,,,,,,
286.37,-0.00015,36.82,,,,,,,
286.4,-0.00012,38.71,,,,,,,
286.43,-0.0001,40.98,,,,,,,
286.47,-7e-05,43.77,,,,,,,
286.51,-5e-05,46.11,,,,,,,
286.54,-2e-05,49.21,,,,,,,
286.59,0.0,51.71,,,,,,,
286.62,3e-05,55.36,,,,,,,
286.64,6e-05,58.1,,,,,,,
286.67,8e-05,60.66,,,,,,,
286.68,0.00011,63.22,,,,,,,
286.72,0.00013,65.98,,,,,,,
286.75,0.00016,68.12,,,,,,,
286.78,0.00018,71.15,,,,,,,
286.78,0.00019,71.47,,,,,,,
286.79,0.00021,74.1,,,,,,,
286.82,0.00024,76.9,,,,,,,
286.84,0.00026,79.47,,,,,,,
286.87,0.00029,82.47,,,,,,,
286.89,0.00031,84.76,,,,,,,
286.92,0.00034,86.88,,,,,,,
286.93,0.00036,89.3,,,,,,,
286.97,0.00039,91.44,,,,,,,
287.0,0.00041,93.9,,,,,,,
287.03,0.00044,96.29,,,,,,,
287.06,0.00047,99.04,,,,,,,
287.09,0.00049,100.93,,,,,,,
287.11,0.00052,102.84,,,,,,,
287.14,0.00054,104.6,,,,,,,
287.17,0.00057,107.26,,,,,,,
287.18,0.00059,108.94,,,,,,,
287.22,0.00062,110.21,,,,,,,
287.23,0.00064,112.0,,,,,,,
287.28,0.00067,114.92,,,,,,,
287.31,0.00069,116.72,,,,,,,
287.32,0.00072,118.17,,,,,,,
287.36,0.00074,120.93,,,,,,,
287.37,0.00077,122.11,,,,,,,
287.4,0.00079,124.25,,,,,,,
287.43,0.00082,126.01,,,,,,,
287.47,0.00085,128.16,,,,,,,
287.48,0.00087,130.35,,,,,,,
287.51,0.0009,132.25,,,,,,,
287.53,0.00092,134.28,,,,,,,
287.54,0.00095,136.99,,,,,,,
287.57,0.00097,139.19,,,,,,,
287.59,0.001,141.2,,,,,,,
287.61,0.00102,143.47,,,,,,,
287.62,0.00105,145.51,,,,,,,
287.65,0.00108,147.69,,,,,,,
287.67,0.0011,149.57,,,,,,,
287.68,0.00113,151.51,,,,,,,
287.7,0.00115,153.48,,,,,,,
287.72,0.00118,155.28,,,,,,,
287.73,0.0012,156.99,,,,,,,
287.75,0.00123,158.9,,,,,,,
287.76,0.00126,160.34,,,,,,,
287.78,0.00127,161.02,,,,,,,
287.78,0.00128,162.0,,,,,,,
580.32,0.00136,170.45,,,,,,,
580.32,0.00138,170.24,,,,,,,
580.34,0.00142,170.41,,,,,,,
580.34,0.00144,170.68,,,,,,,
580.34,0.00147,170.38,,,,,,,
580.34,0.0015,170.56,,,,,,,
580.34,0.00153,170.59,,,,,,,
580.34,0.00156,171.22,,,,,,,
580.34,0.00158,170.8,,,,,,,
580.34,0.00162,171.05,,,,,,,
580.36,0.00165,171.26,,,,,,,
580.36,0.00168,170.98,,,,,,,
580.36,0.00171,171.08,,,,,,,
580.36,0.00174,171.11,,,,,,,
580.37,0.00177,170.72,,,,,,,
580.39,0.00179,169.04,,,,,,,
580.45,0.00177,152.48,,,,,,,
580.47,0.00174,145.88,,,,,,,
580.48,0.00172,140.72,,,,,,,
580.5,0.00169,135.3,,,,,,,
580.5,0.00166,130.59,,,,,,,
580.51,0.00164,126.36,,,,,,,
580.53,0.00161,121.99,,,,,,,
580.53,0.00158,117.89,,,,,,,
580.54,0.00156,114.36,,,,,,,
580.56,0.00153,110.85,,,,,,,
580.56,0.00151,106.88,,,,,,,
580.57,0.00148,103.01,,,,,,,
580.59,0.00145,99.57,,,,,,,
580.59,0.00143,96.57,,,,,,,
580.61,0.0014,93.22,,,,,,,
580.62,0.00138,89.82,,,,,,,
580.62,0.00135,86.52,,,,,,,
580.64,0.00132,83.07,,,,,,,
580.65,0.0013,79.47,,,,,,,
580.67,0.00127,76.33,,,,,,,
580.68,0.00125,72.83,,,,,,,
580.72,0.00122,69.84,,,,,,,
580.73,0.0012,66.44,,,,,,,
580.75,0.00117,63.34,,,,,,,
580.78,0.00115,60.44,,,,,,,
580.78,0.00114,59.62,,,,,,,
580.81,0.00112,56.41,,,,,,,
580.84,0.00109,53.06,,,,,,,
580.87,0.00107,49.5,,,,,,,
580.9,0.00104,46.23,,,,,,,
580.93,0.00102,41.98,,,,,,,
580.97,0.00099,37.99,,,,,,,
581.0,0.00097,34.04,,,,,,,
581.03,0.00094,30.7,,,,,,,
581.06,0.00091,27.34,,,,,,,
581.09,0.00089,23.87,,,,,,,
581.11,0.00086,20.26,,,,,,,
581.14,0.00084,16.94,,,,,,,
581.17,0.00081,13.97,,,,,,,
581.2,0.00079,9.97,,,,,,,
581.23,0.00076,6.42,,,,,,,
581.25,0.00074,3.56,,,,,,,
581.28,0.00071,0.09,,,,,,,
581.31,0.00069,-3.45,,,,,,,
581.34,0.00066,-6.68,,,,,,,
581.37,0.00064,-9.66,,,,,,,
581.39,0.00061,-12.83,,,,,,,
581.42,0.00059,-15.18,,,,,,,
581.45,0.00056,-17.95,,,,,,,
581.5,0.00053,-20.17,,,,,,,
581.54,0.00051,-22.52,,,,,,,
581.61,0.00048,-25.55,,,,,,,
581.64,0.00046,-28.49,,,,,,,
581.68,0.00043,-32.42,,,,,,,
581.7,0.00041,-35.83,,,,,,,
581.73,0.00038,-39.35,,,,,,,
581.75,0.00036,-42.62,,,,,,,
581.78,0.00033,-46.15,,,,,,,
581.79,0.0003,-49.62,,,,,,,
581.81,0.00028,-52.33,,,,,,,
581.84,0.00025,-54.73,,,,,,,
581.86,0.00023,-57.39,,,,,,,
581.89,0.0002,-60.21,,,,,,,
581.9,0.00018,-63.08,,,,,,,
581.93,0.00015,-65.23,,,,,,,
581.97,0.00012,-68.19,,,,,,,
582.0,0.0001,-70.15,,,,,,,
582.01,7e-05,-71.96,,,,,,,
582.04,5e-05,-74.07,,,,,,,
582.09,2e-05,-77.71,,,,,,,
582.12,-0.0,-79.46,,,,,,,
582.14,-3e-05,-81.48,,,,,,,
582.18,-5e-05,-84.91,,,,,,,
582.22,-8e-05,-87.62,,,,,,,
582.23,-0.0001,-89.78,,,,,,,
582.26,-0.00013,-91.98,,,,,,,
582.29,-0.00016,-95.54,,,,,,,
582.32,-0.00018,-97.63,,,,,,,
582.36,-0.00021,-100.4,,,,,,,
582.37,-0.00023,-103.2,,,,,,,
582.4,-0.00026,-106.6,,,,,,,
582.42,-0.00028,-108.7,,,,,,,
582.43,-0.00031,-112.1,,,,,,,
582.45,-0.00034,-115.4,,,,,,,
582.47,-0.00036,-117.5,,,,,,,
582.48,-0.00039,-119.9,,,,,,,
582.5,-0.00041,-122.7,,,,,,,
582.51,-0.00044,-125.0,,,,,,,
582.53,-0.00046,-127.6,,,,,,,
582.56,-0.00049,-130.7,,,,,,,
582.57,-0.00052,-133.2,,,,,,,
582.59,-0.00054,-135.5,,,,,,,
582.61,-0.00057,-137.9,,,,,,,
582.62,-0.00059,-140.0,,,,,,,
582.64,-0.00062,-142.4,,,,,,,
582.65,-0.00065,-144.5,,,,,,,
582.67,-0.00067,-146.1,,,,,,,
582.68,-0.0007,-147.6,,,,,,,
582.72,-0.00072,-149.4,,,,,,,
582.73,-0.00075,-151.7,,,,,,,
582.75,-0.00077,-153.2,,,,,,,
582.76,-0.0008,-154.7,,,,,,,
582.78,-0.00081,-155.0,,,,,,,
582.79,-0.00082,-156.5,,,,,,,
582.81,-0.00085,-157.3,,,,,,,
582.82,-0.00088,-159.0,,,,,,,
582.86,-0.0009,-160.1,,,,,,,
582.87,-0.00093,-161.5,,,,,,,
582.89,-0.00095,-162.4,,,,,,,
582.92,-0.00098,-163.4,,,,,,,
582.93,-0.001,-164.4,,,,,,,
582.97,-0.00103,-165.0,,,,,,,
582.98,-0.00105,-165.9,,,,,,,
583.01,-0.00108,-167.0,,,,,,,
583.03,-0.00111,-167.7,,,,,,,
583.06,-0.00113,-168.4,,,,,,,
583.07,-0.00116,-168.7,,,,,,,
583.11,-0.00118,-169.7,,,,,,,
583.12,-0.00121,-170.2,,,,,,,
583.15,-0.00123,-170.5,,,,,,,
583.17,-0.00126,-171.2,,,,,,,
583.2,-0.00128,-171.6,,,,,,,
583.22,-0.00131,-172.0,,,,,,,
583.25,-0.00134,-172.2,,,,,,,
583.28,-0.00136,-172.9,,,,,,,
583.29,-0.00139,-173.1,,,,,,,
583.32,-0.00141,-173.1,,,,,,,
583.34,-0.00144,-173.3,,,,,,,
583.37,-0.00146,-172.7,,,,,,,
583.4,-0.00149,-171.5,,,,,,,
583.47,-0.00151,-163.9,,,,,,,
583.53,-0.00149,-151.4,,,,,,,
583.54,-0.00146,-145.9,,,,,,,
583.57,-0.00144,-140.1,,,,,,,
583.59,-0.00141,-135.3,,,,,,,
583.61,-0.00138,-130.2,,,,,,,
583.62,-0.00136,-125.5,,,,,,,
583.65,-0.00133,-121.5,,,,,,,
583.67,-0.00131,-117.5,,,,,,,
583.68,-0.00128,-113.5,,,,,,,
583.7,-0.00126,-110.0,,,,,,,
583.72,-0.00123,-105.7,,,,,,,
583.73,-0.00121,-102.1,,,,,,,
583.75,-0.00118,-98.53,,,,,,,
583.78,-0.00116,-95.1,,,,,,,
583.78,-0.00116,-94.7,,,,,,,
583.79,-0.00113,-91.0,,,,,,,
583.81,-0.0011,-87.91,,,,,,,
583.84,-0.00108,-83.84,,,,,,,
583.86,-0.00105,-80.75,,,,,,,
583.89,-0.00103,-76.14,,,,,,,
583.92,-0.001,-73.76,,,,,,,
583.95,-0.00098,-68.36,,,,,,,
583.98,-0.00095,-65.34,,,,,,,
584.0,-0.00093,-62.55,,,,,,,
584.03,-0.0009,-59.22,,,,,,,
584.06,-0.00088,-55.42,,,,,,,
584.07,-0.00085,-52.26,,,,,,,
584.11,-0.00082,-48.47,,,,,,,
584.14,-0.0008,-44.33,,,,,,,
584.17,-0.00077,-41.74,,,,,,,
584.18,-0.00075,-39.04,,,,,,,
584.22,-0.00072,-35.38,,,,,,,
584.25,-0.0007,-31.82,,,,,,,
584.28,-0.00067,-28.68,,,,,,,
584.31,-0.00065,-25.25,,,,,,,
584.34,-0.00062,-21.56,,,,,,,
584.37,-0.00059,-18.19,,,,,,,
584.4,-0.00057,-14.92,,,,,,,
584.42,-0.00054,-11.9,,,,,,,
584.45,-0.00052,-8.38,,,,,,,
584.48,-0.00049,-4.99,,,,,,,
584.5,-0.00047,-2.2,,,,,,,
584.53,-0.00044,1.25,,,,,,,
584.56,-0.00042,4.25,,,,,,,
584.59,-0.00039,7.49,,,,,,,
584.61,-0.00037,10.55,,,,,,,
584.64,-0.00034,13.81,,,,,,,
584.67,-0.00032,16.38,,,,,,,
584.68,-0.00029,19.43,,,,,,,
584.72,-0.00026,22.71,,,,,,,
584.75,-0.00024,25.7,,,,,,,
584.78,-0.00021,28.67,,,,,,,
584.79,-0.00019,31.34,,,,,,,
584.82,-0.00016,34.77,,,,,,,
584.86,-0.00014,37.21,,,,,,,
584.89,-0.00011,39.23,,,,,,,
584.9,-9e-05,41.59,,,,,,,
584.97,-6e-05,44.29,,,,,,,
585.0,-4e-05,46.45,,,,,,,
585.03,-1e-05,48.65,,,,,,,
585.07,1e-05,52.14,,,,,,,
585.11,4e-05,55.77,,,,,,,
585.12,7e-05,58.49,,,,,,,
585.15,9e-05,60.98,,,,,,,
585.18,0.00012,63.49,,,,,,,
585.22,0.00014,66.48,,,,,,,
585.23,0.00017,69.11,,,,,,,
585.26,0.00019,71.58,,,,,,,
585.28,0.00022,74.52,,,,,,,
585.31,0.00024,76.72,,,,,,,
585.32,0.00027,79.89,,,,,,,
585.34,0.0003,81.59,,,,,,,
585.37,0.00032,84.11,,,,,,,
585.4,0.00035,86.55,,,,,,,
585.42,0.00037,88.62,,,,,,,
585.45,0.0004,90.97,,,,,,,
585.48,0.00042,93.48,,,,,,,
585.51,0.00045,95.36,,,,,,,
585.54,0.00048,97.49,,,,,,,
585.57,0.0005,99.27,,,,,,,
585.61,0.00053,101.91,,,,,,,
585.64,0.00055,103.57,,,,,,,
585.65,0.00058,105.51,,,,,,,
585.68,0.0006,107.62,,,,,,,
585.72,0.00063,109.97,,,,,,,
585.75,0.00066,112.46,,,,,,,
585.78,0.00068,113.74,,,,,,,
585.78,0.00068,114.43,,,,,,,
585.81,0.00071,116.33,,,,,,,
585.84,0.00073,118.63,,,,,,,
585.86,0.00076,120.53,,,,,,,
585.89,0.00078,122.7,,,,,,,
585.9,0.00081,124.23,,,,,,,
585.93,0.00083,126.17,,,,,,,
585.95,0.00086,128.29,,,,,,,
585.98,0.00089,130.53,,,,,,,
586.0,0.00091,132.72,,,,,,,
586.03,0.00094,135.56,,,,,,,
586.04,0.00096,137.59,,,,,,,
586.07,0.00099,139.93,,,,,,,
586.09,0.00101,142.06,,,,,,,
586.11,0.00104,143.9,,,,,,,
586.12,0.00106,146.2,,,,,,,
586.14,0.00109,148.36,,,,,,,
586.15,0.00112,150.27,,,,,,,
586.17,0.00114,152.12,,,,,,,
586.18,0.00117,153.91,,,,,,,
586.22,0.00119,155.92,,,,,,,
586.23,0.00122,157.64,,,,,,,
586.25,0.00125,159.16,,,,,,,
586.26,0.00127,160.87,,,,,,,
586.28,0.0013,162.6,,,,,,,
1177.34,0.00129,171.09,,,,,,,
1177.36,0.00132,172.49,,,,,,,
1177.37,0.00135,173.97,,,,,,,
1177.4,0.00137,174.68,,,,,,,
1177.42,0.0014,175.23,,,,,,,
1177.43,0.00142,170.97,,,,,,,
1177.45,0.00145,170.84,,,,,,,
1177.45,0.00148,170.69,,,,,,,
1177.45,0.00151,170.45,,,,,,,
1177.45,0.00155,170.42,,,,,,,
1177.45,0.00158,170.29,,,,,,,
1177.47,0.00162,170.21,,,,,,,
1177.47,0.00165,170.14,,,,,,,
1177.47,0.00167,169.79,,,,,,,
1177.47,0.0017,169.44,,,,,,,
1177.47,0.00173,169.2,,,,,,,
1177.48,0.00176,168.6,,,,,,,
1177.5,0.00178,165.96,,,,,,,
1177.53,0.00176,155.01,,,,,,,
1177.54,0.00173,148.6,,,,,,,
1177.56,0.0017,142.73,,,,,,,
1177.57,0.00168,138.49,,,,,,,
1177.57,0.00165,134.41,,,,,,,
1177.59,0.00162,129.35,,,,,,,
1177.61,0.0016,124.17,,,,,,,
1177.61,0.00157,120.42,,,,,,,
1177.62,0.00155,116.86,,,,,,,
1177.64,0.00152,113.05,,,,,,,
1177.64,0.00149,108.8,,,,,,,
1177.65,0.00147,105.07,,,,,,,
1177.65,0.00144,101.13,,,,,,,
1177.67,0.00141,97.59,,,,,,,
1177.68,0.00139,93.84,,,,,,,
1177.68,0.00136,90.42,,,,,,,
1177.7,0.00133,87.01,,,,,,,
1177.72,0.00131,84.14,,,,,,,
1177.73,0.00128,80.44,,,,,,,
1177.75,0.00126,76.94,,,,,,,
1177.75,0.00123,73.59,,,,,,,
1177.76,0.00121,70.59,,,,,,,
1177.78,0.0012,69.97,,,,,,,
1177.78,0.00118,67.29,,,,,,,
1177.81,0.00116,63.96,,,,,,,
1177.82,0.00113,61.07,,,,,,,
1177.84,0.0011,57.44,,,,,,,
1177.87,0.00108,53.95,,,,,,,
1177.89,0.00105,50.87,,,,,,,
1177.92,0.00103,47.82,,,,,,,
1177.97,0.001,43.75,,,,,,,
1177.98,0.00098,40.51,,,,,,,
1178.01,0.00095,36.57,,,,,,,
1178.04,0.00093,33.13,,,,,,,
1178.07,0.0009,29.83,,,,,,,
1178.12,0.00088,25.36,,,,,,,
1178.14,0.00085,23.07,,,,,,,
1178.17,0.00083,18.94,,,,,,,
1178.18,0.0008,16.58,,,,,,,
1178.23,0.00077,11.98,,,,,,,
1178.25,0.00075,9.15,,,,,,,
1178.28,0.00072,5.94,,,,,,,
1178.31,0.0007,2.35,,,,,,,
1178.34,0.00067,-0.74,,,,,,,
1178.36,0.00065,-3.79,,,,,,,
1178.39,0.00062,-6.76,,,,,,,
1178.42,0.0006,-10.16,,,,,,,
1178.45,0.00057,-13.04,,,,,,,
1178.47,0.00055,-15.38,,,,,,,
1178.5,0.00052,-17.72,,,,,,,
1178.56,0.0005,-20.39,,,,,,,
1178.61,0.00047,-22.98,,,,,,,
1178.67,0.00045,-25.6,,,,,,,
1178.7,0.00042,-28.86,,,,,,,
1178.73,0.00039,-32.6,,,,,,,
1178.76,0.00037,-37.57,,,,,,,
1178.78,0.00036,-38.01,,,,,,,
1178.79,0.00034,-40.42,,,,,,,
1178.81,0.00032,-42.88,,,,,,,
1178.82,0.00029,-46.4,,,,,,,
1178.84,0.00027,-49.25,,,,,,,
1178.87,0.00024,-51.61,,,,,,,
1178.89,0.00022,-54.55,,,,,,,
1178.92,0.00019,-57.63,,,,,,,
1178.93,0.00016,-60.69,,,,,,,
1178.97,0.00014,-62.83,,,,,,,
1179.0,0.00011,-65.53,,,,,,,
1179.03,9e-05,-68.33,,,,,,,
1179.06,6e-05,-70.66,,,,,,,
1179.09,4e-05,-73.33,,,,,,,
1179.12,1e-05,-75.92,,,,,,,
1179.14,-1e-05,-77.69,,,,,,,
1179.17,-4e-05,-80.43,,,,,,,
1179.2,-6e-05,-82.73,,,,,,,
1179.23,-9e-05,-85.23,,,,,,,
1179.26,-0.00012,-88.23,,,,,,,
1179.29,-0.00014,-90.89,,,,,,,
1179.32,-0.00017,-93.03,,,,,,,
1179.36,-0.00019,-95.63,,,,,,,
1179.39,-0.00022,-98.96,,,,,,,
1179.4,-0.00024,-101.7,,,,,,,
1179.43,-0.00027,-104.8,,,,,,,
1179.45,-0.0003,-107.2,,,,,,,
1179.48,-0.00032,-110.8,,,,,,,
1179.5,-0.00035,-113.8,,,,,,,
1179.51,-0.00037,-116.2,,,,,,,
1179.53,-0.0004,-118.9,,,,,,,
1179.54,-0.00043,-122.4,,,,,,,
1179.56,-0.00045,-125.1,,,,,,,
1179.59,-0.00048,-127.8,,,,,,,
1179.59,-0.0005,-130.2,,,,,,,
1179.62,-0.00053,-133.0,,,,,,,
1179.64,-0.00056,-135.1,,,,,,,
1179.65,-0.00058,-137.5,,,,,,,
1179.67,-0.00061,-139.7,,,,,,,
1179.68,-0.00063,-142.2,,,,,,,
1179.7,-0.00066,-144.3,,,,,,,
1179.72,-0.00069,-146.3,,,,,,,
1179.73,-0.00071,-148.4,,,,,,,
1179.75,-0.00074,-150.1,,,,,,,
1179.78,-0.00076,-151.9,,,,,,,
1179.78,-0.00076,-151.7,,,,,,,
1179.79,-0.00079,-153.3,,,,,,,
1179.81,-0.00081,-155.1,,,,,,,
1179.82,-0.00084,-156.8,,,,,,,
1179.84,-0.00086,-158.0,,,,,,,
1179.87,-0.00089,-159.7,,,,,,,
1179.89,-0.00092,-161.0,,,,,,,
1179.92,-0.00094,-162.1,,,,,,,
1179.93,-0.00097,-163.5,,,,,,,
1179.95,-0.00099,-164.4,,,,,,,
1179.98,-0.00102,-161.0,,,,,,,
1180.04,-0.00104,-164.0,,,,,,,
1180.06,-0.00107,-165.6,,,,,,,
1180.07,-0.00109,-166.6,,,,,,,
1180.09,-0.00112,-167.7,,,,,,,
1180.12,-0.00114,-169.1,,,,,,,
1180.14,-0.00117,-170.0,,,,,,,
1180.17,-0.0012,-171.3,,,,,,,
1180.18,-0.00122,-172.2,,,,,,,
1180.2,-0.00125,-173.2,,,,,,,
1180.22,-0.00127,-174.0,,,,,,,
1180.25,-0.0013,-174.8,,,,,,,
1180.26,-0.00132,-175.4,,,,,,,
1180.29,-0.00135,-175.9,,,,,,,
1180.31,-0.00138,-176.4,,,,,,,
1180.34,-0.0014,-177.0,,,,,,,
1180.36,-0.00143,-177.1,,,,,,,
1180.39,-0.00145,-176.9,,,,,,,
1180.42,-0.00148,-175.8,,,,,,,
1180.45,-0.0015,-172.8,,,,,,,
1180.56,-0.00148,-152.8,,,,,,,
1180.57,-0.00145,-146.9,,,,,,,
1180.61,-0.00143,-141.4,,,,,,,
1180.62,-0.0014,-135.5,,,,,,,
1180.64,-0.00137,-132.2,,,,,,,
1180.65,-0.00135,-128.4,,,,,,,
1180.67,-0.00132,-122.9,,,,,,,
1180.7,-0.0013,-117.2,,,,,,,
1180.72,-0.00127,-114.3,,,,,,,
1180.73,-0.00125,-111.1,,,,,,,
1180.75,-0.00122,-107.1,,,,,,,
1180.76,-0.00119,-103.0,,,,,,,
1180.78,-0.00118,-101.4,,,,,,,
1180.78,-0.00117,-100.1,,,,,,,
1180.81,-0.00114,-96.58,,,,,,,
1180.82,-0.00112,-92.73,,,,,,,
1180.84,-0.00109,-88.73,,,,,,,
1180.87,-0.00107,-85.23,,,,,,,
1180.89,-0.00104,-82.24,,,,,,,
1180.92,-0.00102,-78.69,,,,,,,
1180.95,-0.00099,-75.15,,,,,,,
1180.97,-0.00096,-71.76,,,,,,,
1181.0,-0.00094,-68.46,,,,,,,
1181.04,-0.00091,-63.54,,,,,,,
1181.06,-0.00089,-61.23,,,,,,,
1181.07,-0.00086,-59.0,,,,,,,
1181.12,-0.00084,-53.01,,,,,,,
1181.15,-0.00081,-50.65,,,,,,,
1181.18,-0.00079,-46.12,,,,,,,
1181.22,-0.00076,-42.9,,,,,,,
1181.23,-0.00073,-39.02,,,,,,,
1181.26,-0.00071,-35.73,,,,,,,
1181.29,-0.00068,-32.55,,,,,,,
1181.32,-0.00066,-28.79,,,,,,,
1181.34,-0.00063,-25.67,,,,,,,
1181.37,-0.00061,-22.2,,,,,,,
1181.4,-0.00058,-19.04,,,,,,,
1181.43,-0.00056,-15.71,,,,,,,
1181.45,-0.00053,-12.22,,,,,,,
1181.48,-0.00051,-9.26,,,,,,,
1181.51,-0.00048,-6.11,,,,,,,
1181.53,-0.00045,-3.06,,,,,,,
1181.56,-0.00043,0.4,,,,,,,
1181.59,-0.0004,3.35,,,,,,,
1181.62,-0.00038,6.36,,,,,,,
1181.65,-0.00035,9.74,,,,,,,
1181.67,-0.00033,12.92,,,,,,,
1181.7,-0.0003,15.77,,,,,,,
1181.73,-0.00028,18.95,,,,,,,
1181.76,-0.00025,22.05,,,,,,,
1181.78,-0.00024,24.01,,,,,,,
1181.78,-0.00022,24.98,,,,,,,
1181.81,-0.0002,27.67,,,,,,,
1181.84,-0.00017,30.72,,,,,,,
1181.87,-0.00015,33.56,,,,,,,
1181.89,-0.00012,36.28,,,,,,,
1181.92,-0.0001,38.55,,,,,,,
1181.95,-7e-05,41.31,,,,,,,
1182.0,-5e-05,43.32,,,,,,,
1182.03,-2e-05,45.84,,,,,,,
1182.07,1e-05,48.53,,,,,,,
1182.09,3e-05,50.15,,,,,,,
1182.12,6e-05,53.02,,,,,,,
1182.15,8e-05,56.3,,,,,,,
1182.18,0.00011,59.05,,,,,,,
1182.23,0.00013,62.63,,,,,,,
1182.25,0.00016,65.26,,,,,,,
1182.28,0.00018,68.44,,,,,,,
1182.31,0.00021,71.55,,,,,,,
1182.32,0.00023,74.06,,,,,,,
1182.36,0.00026,77.29,,,,,,,
1182.37,0.00029,79.79,,,,,,,
1182.4,0.00031,82.23,,,,,,,
1182.42,0.00034,84.83,,,,,,,
1182.45,0.00036,87.11,,,,,,,
1182.47,0.00039,89.34,,,,,,,
1182.5,0.00041,91.31,,,,,,,
1182.51,0.00044,93.37,,,,,,,
1182.54,0.00046,95.5,,,,,,,
1182.57,0.00049,97.59,,,,,,,
1182.61,0.00052,100.06,,,,,,,
1182.64,0.00054,101.4,,,,,,,
1182.67,0.00057,103.45,,,,,,,
1182.7,0.00059,105.88,,,,,,,
1182.73,0.00062,107.71,,,,,,,
1182.75,0.00064,109.04,,,,,,,
1182.78,0.00066,111.26,,,,,,,
1182.78,0.00067,111.21,,,,,,,
1182.81,0.00069,113.18,,,,,,,
1182.82,0.00072,115.34,,,,,,,
1182.86,0.00074,117.14,,,,,,,
1182.89,0.00077,118.98,,,,,,,
1182.9,0.0008,120.83,,,,,,,
1182.93,0.00082,122.6,,,,,,,
1182.97,0.00085,124.65,,,,,,,
1182.98,0.00087,126.19,,,,,,,
1183.01,0.0009,128.05,,,,,,,
1183.03,0.00092,130.13,,,,,,,
1183.06,0.00095,132.72,,,,,,,
1183.07,0.00098,134.67,,,,,,,
1183.11,0.001,136.73,,,,,,,
1183.12,0.00103,138.82,,,,,,,
1183.14,0.00105,141.28,,,,,,,
1183.15,0.00108,143.42,,,,,,,
1183.17,0.0011,145.31,,,,,,,
1183.18,0.00113,147.36,,,,,,,
1183.2,0.00116,148.88,,,,,,,
1183.22,0.00118,150.4,,,,,,,
1183.23,0.00121,152.57,,,,,,,
1183.26,0.00123,154.16,,,,,,,
1183.28,0.00126,155.81,,,,,,,
1183.29,0.00128,157.63,,,,,,,
2968.28,0.00133,171.09,,,,,,,
2968.29,0.00136,172.16,,,,,,,
2968.31,0.00138,173.0,,,,,,,
2968.32,0.00141,173.65,,,,,,,
2968.36,0.00144,173.52,,,,,,,
2968.37,0.00146,172.29,,,,,,,
2968.4,0.00149,170.77,,,,,,,
2968.51,0.00146,150.94,,,,,,,
2968.53,0.00143,145.36,,,,,,,
2968.56,0.00141,139.89,,,,,,,
2968.57,0.00138,135.09,,,,,,,
2968.59,0.00136,130.03,,,,,,,
2968.62,0.00133,125.45,,,,,,,
2968.64,0.00131,121.05,,,,,,,
2968.65,0.00128,116.98,,,,,,,
2968.67,0.00126,112.55,,,,,,,
2968.68,0.00123,108.62,,,,,,,
2968.72,0.0012,105.02,,,,,,,
2968.73,0.00118,100.77,,,,,,,
2968.75,0.00115,96.97,,,,,,,
2968.78,0.00113,93.63,,,,,,,
2968.78,0.00113,92.89,,,,,,,
2968.79,0.0011,89.35,,,,,,,
2968.82,0.00108,85.19,,,,,,,
2968.84,0.00105,82.18,,,,,,,
2968.87,0.00103,78.66,,,,,,,
2968.89,0.001,74.79,,,,,,,
2968.92,0.00098,71.88,,,,,,,
2968.95,0.00095,68.14,,,,,,,
2968.97,0.00092,64.59,,,,,,,
2969.0,0.0009,60.7,,,,,,,
2969.03,0.00087,57.69,,,,,,,
2969.07,0.00085,52.69,,,,,,,
2969.09,0.00082,49.65,,,,,,,
2969.12,0.0008,46.47,,,,,,,
2969.14,0.00077,43.29,,,,,,,
2969.18,0.00075,39.07,,,,,,,
2969.2,0.00072,35.33,,,,,,,
2969.23,0.0007,32.08,,,,,,,
2969.26,0.00067,28.94,,,,,,,
2969.29,0.00065,24.96,,,,,,,
2969.31,0.00062,22.04,,,,,,,
2969.34,0.00059,18.47,,,,,,,
2969.37,0.00057,15.44,,,,,,,
2969.4,0.00054,12.23,,,,,,,
2969.42,0.00052,8.93,,,,,,,
2969.45,0.00049,5.58,,,,,,,
2969.48,0.00047,2.88,,,,,,,
2969.51,0.00044,-1.14,,,,,,,
2969.54,0.00042,-4.25,,,,,,,
2969.56,0.00039,-7.48,,,,,,,
2969.59,0.00037,-10.22,,,,,,,
2969.62,0.00034,-13.53,,,,,,,
2969.65,0.00031,-16.58,,,,,,,
2969.68,0.00029,-18.32,,,,,,,
2969.73,0.00026,-20.69,,,,,,,
2969.78,0.00025,-22.48,,,,,,,
2969.79,0.00024,-23.03,,,,,,,
2969.84,0.00021,-26.3,,,,,,,
2969.89,0.00019,-30.03,,,,,,,
2969.92,0.00016,-34.26,,,,,,,
2969.93,0.00014,-37.55,,,,,,,
2969.95,0.00011,-41.07,,,,,,,
2969.98,8e-05,-43.82,,,,,,,
2970.0,6e-05,-46.42,,,,,,,
2970.01,3e-05,-50.14,,,,,,,
2970.04,1e-05,-53.17,,,,,,,
2970.06,-2e-05,-55.41,,,,,,,
2970.09,-4e-05,-58.44,,,,,,,
2970.11,-7e-05,-60.76,,,,,,,
2970.14,-9e-05,-63.99,,,,,,,
2970.17,-0.00012,-66.48,,,,,,,
2970.2,-0.00014,-68.99,,,,,,,
2970.23,-0.00017,-71.16,,,,,,,
2970.26,-0.0002,-74.25,,,,,,,
2970.29,-0.00022,-76.67,,,,,,,
2970.32,-0.00025,-79.1,,,,,,,
2970.36,-0.00027,-81.63,,,,,,,
2970.37,-0.0003,-83.99,,,,,,,
2970.4,-0.00032,-86.7,,,,,,,
2970.43,-0.00035,-88.9,,,,,,,
2970.47,-0.00037,-92.4,,,,,,,
2970.5,-0.0004,-94.37,,,,,,,
2970.53,-0.00042,-97.36,,,,,,,
2970.54,-0.00045,-99.43,,,,,,,
2970.57,-0.00048,-101.9,,,,,,,
2970.59,-0.0005,-105.3,,,,,,,
2970.62,-0.00053,-107.9,,,,,,,
2970.64,-0.00055,-111.3,,,,,,,
2970.65,-0.00058,-114.2,,,,,,,
2970.68,-0.0006,-116.9,,,,,,,
2970.68,-0.00063,-119.3,,,,,,,
2970.72,-0.00066,-121.9,,,,,,,
2970.73,-0.00068,-124.2,,,,,,,
2970.75,-0.00071,-126.9,,,,,,,
2970.76,-0.00073,-129.7,,,,,,,
2970.78,-0.00075,-131.5,,,,,,,
2970.78,-0.00076,-132.0,,,,,,,
2970.79,-0.00078,-134.3,,,,,,,
2970.81,-0.00081,-137.0,,,,,,,
2970.82,-0.00084,-139.2,,,,,,,
2970.84,-0.00086,-141.2,,,,,,,
2970.86,-0.00089,-143.2,,,,,,,
2970.87,-0.00091,-145.2,,,,,,,
2970.9,-0.00094,-147.0,,,,,,,
2970.92,-0.00096,-148.8,,,,,,,
2970.93,-0.00099,-151.2,,,,,,,
2970.95,-0.00101,-152.9,,,,,,,
2970.97,-0.00104,-154.4,,,,,,,
2971.0,-0.00107,-156.5,,,,,,,
2971.01,-0.00109,-157.7,,,,,,,
2971.03,-0.00112,-159.3,,,,,,,
2971.06,-0.00114,-160.6,,,,,,,
2971.07,-0.00117,-161.9,,,,,,,
2971.09,-0.00119,-163.2,,,,,,,
2971.12,-0.00122,-164.4,,,,,,,
2971.15,-0.00124,-165.6,,,,,,,
2971.17,-0.00127,-166.6,,,,,,,
2971.2,-0.0013,-167.9,,,,,,,
2971.22,-0.00132,-168.8,,,,,,,
2971.23,-0.00135,-169.6,,,,,,,
2971.26,-0.00137,-170.5,,,,,,,
2971.29,-0.0014,-171.7,,,,,,,
2971.31,-0.00142,-171.9,,,,,,,
2971.34,-0.00145,-171.0,,,,,,,
2971.39,-0.00147,-169.1,,,,,,,
2971.5,-0.00145,-151.1,,,,,,,
2971.51,-0.00142,-145.0,,,,,,,
2971.54,-0.0014,-139.6,,,,,,,
2971.56,-0.00137,-134.2,,,,,,,
2971.57,-0.00135,-130.2,,,,,,,
2971.59,-0.00132,-125.7,,,,,,,
2971.62,-0.00129,-121.7,,,,,,,
2971.64,-0.00127,-117.7,,,,,,,
2971.65,-0.00124,-113.3,,,,,,,
2971.67,-0.00122,-109.6,,,,,,,
2971.7,-0.00119,-105.4,,,,,,,
2971.72,-0.00117,-101.7,,,,,,,
2971.73,-0.00114,-97.6,,,,,,,
2971.76,-0.00111,-94.08,,,,,,,
2971.78,-0.0011,-91.81,,,,,,,
2971.78,-0.00109,-90.05,,,,,,,
2971.81,-0.00106,-86.6,,,,,,,
2971.82,-0.00104,-82.6,,,,,,,
2971.86,-0.00101,-79.06,,,,,,,
2971.89,-0.00099,-75.24,,,,,,,
2971.9,-0.00096,-72.02,,,,,,,
2971.93,-0.00094,-67.93,,,,,,,
2971.97,-0.00091,-64.6,,,,,,,
2972.0,-0.00089,-61.18,,,,,,,
2972.01,-0.00086,-57.54,,,,,,,
2972.04,-0.00084,-53.87,,,,,,,
2972.07,-0.00081,-50.35,,,,,,,
2972.11,-0.00078,-46.62,,,,,,,
2972.14,-0.00076,-42.83,,,,,,,
2972.17,-0.00073,-38.96,,,,,,,
2972.18,-0.00071,-35.92,,,,,,,
2972.22,-0.00068,-31.91,,,,,,,
2972.25,-0.00066,-28.52,,,,,,,
2972.29,-0.00063,-23.64,,,,,,,
2972.31,-0.00061,-20.33,,,,,,,
2972.32,-0.00058,-18.11,,,,,,,
2972.34,-0.00056,-16.46,,,,,,,
2972.39,-0.00053,-11.55,,,,,,,
2972.42,-0.00051,-7.97,,,,,,,
2972.43,-0.00048,-5.04,,,,,,,
2972.47,-0.00046,-1.35,,,,,,,
2972.5,-0.00043,1.28,,,,,,,
2972.53,-0.0004,4.68,,,,,,,
2972.56,-0.00038,8.69,,,,,,,
2972.57,-0.00035,11.83,,,,,,,
2972.61,-0.00033,14.98,,,,,,,
2972.62,-0.0003,17.92,,,,,,,
2972.65,-0.00028,19.91,,,,,,,
2972.68,-0.00025,23.78,,,,,,,
2972.73,-0.00023,28.15,,,,,,,
2972.75,-0.0002,31.13,,,,,,,
2972.78,-0.00018,33.55,,,,,,,
2972.78,-0.00017,34.28,,,,,,,
2972.81,-0.00015,38.1,,,,,,,
2972.84,-0.00012,40.2,,,,,,,
2972.87,-0.0001,42.69,,,,,,,
2972.9,-7e-05,45.24,,,,,,,
2972.95,-5e-05,48.23,,,,,,,
2972.98,-2e-05,51.16,,,,,,,
2973.03,0.0,54.26,,,,,,,
2973.06,3e-05,57.27,,,,,,,
2973.07,6e-05,59.88,,,,,,,
2973.11,8e-05,63.0,,,,,,,
2973.14,0.00011,65.4,,,,,,,
2973.15,0.00013,68.12,,,,,,,
2973.18,0.00016,71.05,,,,,,,
2973.22,0.00018,73.72,,,,,,,
2973.23,0.00021,77.05,,,,,,,
2973.26,0.00023,79.27,,,,,,,
2973.28,0.00026,82.23,,,,,,,
2973.31,0.00028,84.91,,,,,,,
2973.34,0.00031,87.73,,,,,,,
2973.36,0.00034,90.17,,,,,,,
2973.39,0.00036,92.6,,,,,,,
2973.42,0.00039,95.48,,,,,,,
2973.43,0.00041,97.46,,,,,,,
2973.47,0.00044,99.74,,,,,,,
2973.5,0.00046,102.19,,,,,,,
2973.53,0.00049,104.39,,,,,,,
2973.56,0.00051,106.57,,,,,,,
2973.59,0.00054,109.28,,,,,,,
2973.62,0.00056,111.51,,,,,,,
2973.64,0.00059,113.21,,,,,,,
2973.67,0.00061,115.65,,,,,,,
2973.72,0.00064,118.79,,,,,,,
2973.73,0.00066,120.86,,,,,,,
2973.75,0.00069,122.37,,,,,,,
2973.78,0.00072,124.53,,,,,,,
2973.78,0.00072,124.28,,,,,,,
2973.81,0.00074,127.42,,,,,,,
2973.84,0.00077,130.07,,,,,,,
2973.86,0.00079,131.4,,,,,,,
2973.87,0.00082,132.65,,,,,,,
2973.9,0.00084,135.16,,,,,,,
2973.93,0.00087,139.08,,,,,,,
2973.95,0.0009,140.87,,,,,,,
2973.97,0.00092,142.66,,,,,,,
2973.98,0.00095,144.77,,,,,,,
2974.01,0.00097,148.16,,,,,,,
2974.03,0.001,151.12,,,,,,,
2974.04,0.00102,153.1,,,,,,,
2974.06,0.00105,154.45,,,,,,,
2974.07,0.00107,156.37,,,,,,,
2974.09,0.0011,157.58,,,,,,,
2974.09,0.00113,159.49,,,,,,,
2974.12,0.00115,161.59,,,,,,,
2974.14,0.00118,163.4,,,,,,,
2974.15,0.0012,165.43,,,,,,,
2974.18,0.00123,167.04,,,,,,,
2974.2,0.00125,168.91,,,,,,,
2974.22,0.00128,170.23,,,,,,,
2974.23,0.0013,171.4,,,,,,,
5953.17,0.00131,174.87,,,,,,,
5953.18,0.00134,176.38,,,,,,,
5953.22,0.00137,177.97,,,,,,,
5953.23,0.00139,177.99,,,,,,,
5953.26,0.00142,177.62,,,,,,,
5953.29,0.00144,175.89,,,,,,,
5953.42,0.00142,156.52,,,,,,,
5953.43,0.00139,150.05,,,,,,,
5953.47,0.00137,144.32,,,,,,,
5953.5,0.00134,138.34,,,,,,,
5953.51,0.00132,133.87,,,,,,,
5953.53,0.00129,130.66,,,,,,,
5953.54,0.00126,128.03,,,,,,,
5953.56,0.00124,124.38,,,,,,,
5953.57,0.00121,118.61,,,,,,,
5953.59,0.00119,116.1,,,,,,,
5953.62,0.00116,110.52,,,,,,,
5953.64,0.00114,107.36,,,,,,,
5953.67,0.00111,103.95,,,,,,,
5953.68,0.00108,100.21,,,,,,,
5953.7,0.00106,97.66,,,,,,,
5953.73,0.00103,93.32,,,,,,,
5953.75,0.00101,90.37,,,,,,,
5953.78,0.001,87.69,,,,,,,
5953.78,0.00098,86.02,,,,,,,
5953.81,0.00096,81.53,,,,,,,
5953.84,0.00093,79.18,,,,,,,
5953.87,0.00091,74.6,,,,,,,
5953.89,0.00088,72.22,,,,,,,
5953.93,0.00086,66.21,,,,,,,
5953.95,0.00083,63.9,,,,,,,
5953.98,0.0008,61.22,,,,,,,
5954.01,0.00078,56.5,,,,,,,
5954.03,0.00075,54.19,,,,,,,
5954.07,0.00073,49.48,,,,,,,
5954.09,0.0007,46.31,,,,,,,
5954.12,0.00068,42.58,,,,,,,
5954.15,0.00065,39.11,,,,,,,
5954.18,0.00062,36.26,,,,,,,
5954.2,0.0006,33.05,,,,,,,
5954.23,0.00057,29.17,,,,,,,
5954.26,0.00055,25.94,,,,,,,
5954.29,0.00052,22.06,,,,,,,
5954.32,0.0005,18.68,,,,,,,
5954.36,0.00047,15.17,,,,,,,
5954.37,0.00045,12.12,,,,,,,
5954.4,0.00042,8.4,,,,,,,
5954.43,0.0004,5.18,,,,,,,
5954.47,0.00037,1.7,,,,,,,
5954.5,0.00034,-1.69,,,,,,,
5954.53,0.00032,-5.49,,,,,,,
5954.56,0.00029,-8.74,,,,,,,
5954.59,0.00027,-12.34,,,,,,,
5954.62,0.00024,-15.53,,,,,,,
5954.65,0.00022,-18.29,,,,,,,
5954.68,0.00019,-20.45,,,,,,,
5954.73,0.00017,-22.76,,,,,,,
5954.78,0.00015,-24.53,,,,,,,
5954.79,0.00014,-26.21,,,,,,,
5954.84,0.00012,-29.65,,,,,,,
5954.87,9e-05,-34.06,,,,,,,
5954.9,6e-05,-37.76,,,,,,,
5954.92,4e-05,-40.78,,,,,,,
5954.93,1e-05,-44.46,,,,,,,
5954.97,-1e-05,-47.86,,,,,,,
5954.98,-4e-05,-51.01,,,,,,,
5955.0,-6e-05,-53.77,,,,,,,
5955.03,-9e-05,-56.63,,,,,,,
5955.04,-0.00011,-59.17,,,,,,,
5955.07,-0.00014,-61.89,,,,,,,
5955.09,-0.00016,-65.0,,,,,,,
5955.12,-0.00019,-66.92,,,,,,,
5955.15,-0.00021,-69.91,,,,,,,
5955.18,-0.00024,-72.06,,,,,,,
5955.22,-0.00027,-75.03,,,,,,,
5955.25,-0.00029,-77.58,,,,,,,
5955.28,-0.00032,-79.92,,,,,,,
5955.31,-0.00034,-82.26,,,,,,,
5955.32,-0.00037,-84.4,,,,,,,
5955.36,-0.00039,-87.0,,,,,,,
5955.39,-0.00042,-89.09,,,,,,,
5955.42,-0.00044,-91.34,,,,,,,
5955.45,-0.00047,-93.94,,,,,,,
5955.47,-0.00049,-96.71,,,,,,,
5955.5,-0.00052,-99.3,,,,,,,
5955.53,-0.00054,-102.0,,,,,,,
5955.56,-0.00057,-104.8,,,,,,,
5955.57,-0.0006,-107.9,,,,,,,
5955.59,-0.00062,-110.9,,,,,,,
5955.62,-0.00065,-114.0,,,,,,,
5955.64,-0.00067,-117.0,,,,,,,
5955.65,-0.0007,-120.1,,,,,,,
5955.67,-0.00073,-122.9,,,,,,,
5955.68,-0.00075,-125.5,,,,,,,
5955.7,-0.00078,-127.9,,,,,,,
5955.72,-0.0008,-130.6,,,,,,,
5955.73,-0.00083,-133.2,,,,,,,
5955.75,-0.00086,-135.7,,,,,,,
5955.76,-0.00088,-138.2,,,,,,,
5955.78,-0.00089,-138.5,,,,,,,
5955.78,-0.00091,-140.3,,,,,,,
5955.79,-0.00093,-142.5,,,,,,,
5955.82,-0.00096,-144.8,,,,,,,
5955.84,-0.00098,-146.9,,,,,,,
5955.86,-0.00101,-149.1,,,,,,,
5955.87,-0.00104,-150.8,,,,,,,
5955.89,-0.00106,-153.2,,,,,,,
5955.92,-0.00109,-155.0,,,,,,,
5955.92,-0.00111,-156.4,,,,,,,
5955.95,-0.00114,-158.5,,,,,,,
5955.98,-0.00116,-160.5,,,,,,,
5955.98,-0.00119,-161.4,,,,,,,
5956.01,-0.00122,-162.5,,,,,,,
5956.03,-0.00124,-164.1,,,,,,,
5956.06,-0.00127,-166.0,,,,,,,
5956.09,-0.00129,-167.2,,,,,,,
5956.11,-0.00132,-167.5,,,,,,,
5956.14,-0.00134,-169.4,,,,,,,
5956.17,-0.00137,-170.1,,,,,,,
5956.18,-0.00139,-171.7,,,,,,,
5956.22,-0.00142,-171.6,,,,,,,
5956.25,-0.00145,-170.8,,,,,,,
5956.39,-0.00142,-152.4,,,,,,,
5956.4,-0.00139,-146.5,,,,,,,
5956.43,-0.00137,-141.1,,,,,,,
5956.47,-0.00134,-135.7,,,,,,,
5956.48,-0.00132,-132.0,,,,,,,
5956.5,-0.00129,-127.9,,,,,,,
5956.51,-0.00127,-123.3,,,,,,,
5956.53,-0.00124,-119.2,,,,,,,
5956.54,-0.00122,-115.3,,,,,,,
5956.57,-0.00119,-111.2,,,,,,,
5956.59,-0.00116,-107.5,,,,,,,
5956.61,-0.00114,-103.3,,,,,,,
5956.64,-0.00111,-99.88,,,,,,,
5956.65,-0.00109,-96.15,,,,,,,
5956.68,-0.00106,-92.83,,,,,,,
5956.7,-0.00104,-89.28,,,,,,,
5956.73,-0.00101,-85.83,,,,,,,
5956.75,-0.00099,-82.01,,,,,,,
5956.78,-0.00097,-79.24,,,,,,,
5956.78,-0.00096,-78.03,,,,,,,
5956.81,-0.00094,-74.71,,,,,,,
5956.84,-0.00091,-71.0,,,,,,,
5956.87,-0.00088,-67.42,,,,,,,
5956.89,-0.00086,-63.89,,,,,,,
5956.92,-0.00083,-60.0,,,,,,,
5956.95,-0.00081,-56.34,,,,,,,
5956.98,-0.00078,-52.44,,,,,,,
5957.01,-0.00076,-49.12,,,,,,,
5957.04,-0.00073,-45.04,,,,,,,
5957.07,-0.00071,-41.64,,,,,,,
5957.09,-0.00068,-37.61,,,,,,,
5957.12,-0.00066,-34.29,,,,,,,
5957.15,-0.00063,-30.74,,,,,,,
5957.18,-0.0006,-26.76,,,,,,,
5957.22,-0.00058,-23.57,,,,,,,
5957.25,-0.00055,-19.49,,,,,,,
5957.26,-0.00053,-16.14,,,,,,,
5957.29,-0.0005,-12.14,,,,,,,
5957.32,-0.00048,-8.91,,,,,,,
5957.36,-0.00045,-3.79,,,,,,,
5957.37,-0.00043,-2.07,,,,,,,
5957.4,-0.0004,0.0,,,,,,,
5957.43,-0.00037,5.18,,,,,,,
5957.47,-0.00035,8.12,,,,,,,
5957.5,-0.00032,11.57,,,,,,,
5957.51,-0.0003,14.99,,,,,,,
5957.54,-0.00027,18.79,,,,,,,
5957.57,-0.00025,21.76,,,,,,,
5957.61,-0.00022,24.99,,,,,,,
5957.64,-0.0002,28.84,,,,,,,
5957.65,-0.00017,31.54,,,,,,,
5957.68,-0.00015,34.59,,,,,,,
5957.72,-0.00012,37.86,,,,,,,
5957.75,-0.0001,40.99,,,,,,,
5957.78,-8e-05,42.7,,,,,,,
5957.78,-7e-05,43.39,,,,,,,
5957.82,-5e-05,45.68,,,,,,,
5957.86,-2e-05,48.42,,,,,,,
5957.9,1e-05,51.41,,,,,,,
5957.93,3e-05,54.7,,,,,,,
5957.97,6e-05,57.92,,,,,,,
5958.0,8e-05,60.58,,,,,,,
5958.03,0.00011,63.94,,,,,,,
5958.04,0.00013,66.87,,,,,,,
5958.07,0.00016,69.3,,,,,,,
5958.11,0.00018,72.53,,,,,,,
5958.12,0.00021,75.62,,,,,,,
5958.15,0.00023,78.95,,,,,,,
5958.17,0.00026,81.86,,,,,,,
5958.2,0.00028,84.9,,,,,,,
5958.22,0.00031,87.7,,,,,,,
5958.25,0.00034,90.43,,,,,,,
5958.26,0.00036,92.43,,,,,,,
5958.29,0.00039,94.56,,,,,,,
5958.32,0.00041,96.96,,,,,,,
5958.34,0.00044,99.52,,,,,,,
5958.37,0.00046,102.24,,,,,,,
5958.4,0.00049,104.24,,,,,,,
5958.43,0.00051,106.18,,,,,,,
5958.47,0.00054,108.71,,,,,,,
5958.5,0.00056,111.14,,,,,,,
5958.53,0.00059,113.87,,,,,,,
5958.56,0.00062,115.56,,,,,,,
5958.59,0.00064,117.92,,,,,,,
5958.62,0.00067,120.85,,,,,,,
5958.65,0.00069,123.13,,,,,,,
5958.67,0.00072,125.22,,,,,,,
5958.7,0.00074,127.61,,,,,,,
5958.72,0.00077,130.33,,,,,,,
5958.75,0.00079,131.85,,,,,,,
5958.76,0.00082,134.53,,,,,,,
5958.78,0.00082,134.93,,,,,,,
5958.79,0.00084,136.73,,,,,,,
5958.82,0.00087,139.76,,,,,,,
5958.84,0.00089,142.1,,,,,,,
5958.86,0.00092,144.63,,,,,,,
5958.87,0.00095,146.94,,,,,,,
5958.9,0.00097,149.95,,,,,,,
5958.92,0.001,152.47,,,,,,,
5958.93,0.00102,154.83,,,,,,,
5958.95,0.00105,156.95,,,,,,,
5958.97,0.00107,159.53,,,,,,,
5958.98,0.0011,161.85,,,,,,,
5959.0,0.00112,163.87,,,,,,,
5959.03,0.00115,165.86,,,,,,,
5959.04,0.00118,167.77,,,,,,,
5959.06,0.0012,170.07,,,,,,,
5959.07,0.00123,171.48,,,,,,,
5959.09,0.00125,173.29,,,,,,,
5959.11,0.00128,174.8,,,,,,,
11922.93,0.00137,175.46,,,,,,,
11922.93,0.0014,175.95,,,,,,,
11922.93,0.00143,176.18,,,,,,,
11922.95,0.00145,176.87,,,,,,,
11922.97,0.00148,176.7,,,,,,,
11922.98,0.0015,176.57,,,,,,,
11923.01,0.00153,174.61,,,,,,,
11923.11,0.0015,157.74,,,,,,,
11923.14,0.00148,150.82,,,,,,,
11923.17,0.00145,145.95,,,,,,,
11923.18,0.00143,141.98,,,,,,,
11923.2,0.0014,137.32,,,,,,,
11923.22,0.00138,133.17,,,,,,,
11923.23,0.00135,128.52,,,,,,,
11923.26,0.00133,124.38,,,,,,,
11923.28,0.0013,120.27,,,,,,,
11923.29,0.00127,116.12,,,,,,,
11923.31,0.00125,112.25,,,,,,,
11923.32,0.00122,109.04,,,,,,,
11923.36,0.0012,104.52,,,,,,,
11923.39,0.00117,100.31,,,,,,,
11923.4,0.00115,96.38,,,,,,,
11923.42,0.00112,92.71,,,,,,,
11923.45,0.00109,89.5,,,,,,,
11923.47,0.00107,86.01,,,,,,,
11923.5,0.00104,82.01,,,,,,,
11923.53,0.00102,78.43,,,,,,,
11923.56,0.00099,74.9,,,,,,,
11923.57,0.00097,71.59,,,,,,,
11923.61,0.00094,67.71,,,,,,,
11923.64,0.00092,64.12,,,,,,,
11923.67,0.00089,60.39,,,,,,,
11923.7,0.00087,56.61,,,,,,,
11923.73,0.00084,52.42,,,,,,,
11923.76,0.00082,49.36,,,,,,,
11923.78,0.0008,47.28,,,,,,,
11923.78,0.00079,45.5,,,,,,,
11923.81,0.00076,42.38,,,,,,,
11923.84,0.00074,39.07,,,,,,,
11923.87,0.00071,34.93,,,,,,,
11923.9,0.00069,31.65,,,,,,,
11923.92,0.00066,27.91,,,,,,,
11923.95,0.00064,24.49,,,,,,,
11923.98,0.00061,21.52,,,,,,,
11924.01,0.00059,17.59,,,,,,,
11924.04,0.00056,13.53,,,,,,,
11924.06,0.00054,10.81,,,,,,,
11924.09,0.00051,7.37,,,,,,,
11924.12,0.00048,4.14,,,,,,,
11924.15,0.00046,0.36,,,,,,,
11924.18,0.00043,-2.87,,,,,,,
11924.2,0.00041,-5.62,,,,,,,
11924.23,0.00038,-8.9,,,,,,,
11924.26,0.00036,-12.19,,,,,,,
11924.29,0.00033,-15.64,,,,,,,
11924.32,0.00031,-17.98,,,,,,,
11924.37,0.00028,-19.59,,,,,,,
11924.42,0.00026,-22.97,,,,,,,
11924.48,0.00023,-25.51,,,,,,,
11924.51,0.00021,-28.76,,,,,,,
11924.56,0.00018,-33.3,,,,,,,
11924.59,0.00016,-37.02,,,,,,,
11924.61,0.00013,-40.02,,,,,,,
11924.62,0.0001,-43.64,,,,,,,
11924.64,8e-05,-46.55,,,,,,,
11924.67,5e-05,-50.23,,,,,,,
11924.68,3e-05,-53.0,,,,,,,
11924.72,0.0,-55.91,,,,,,,
11924.73,-2e-05,-58.41,,,,,,,
11924.75,-5e-05,-60.76,,,,,,,
11924.78,-7e-05,-62.92,,,,,,,
11924.78,-7e-05,-63.53,,,,,,,
11924.81,-0.0001,-66.19,,,,,,,
11924.84,-0.00013,-68.92,,,,,,,
11924.86,-0.00015,-71.13,,,,,,,
11924.9,-0.00018,-73.86,,,,,,,
11924.92,-0.0002,-75.76,,,,,,,
11924.95,-0.00023,-78.77,,,,,,,
11925.0,-0.00025,-81.39,,,,,,,
11925.03,-0.00028,-84.19,,,,,,,
11925.04,-0.0003,-86.23,,,,,,,
11925.09,-0.00033,-89.21,,,,,,,
11925.11,-0.00036,-91.66,,,,,,,
11925.14,-0.00038,-94.01,,,,,,,
11925.17,-0.00041,-96.65,,,,,,,
11925.18,-0.00043,-99.23,,,,,,,
11925.22,-0.00046,-102.2,,,,,,,
11925.25,-0.00048,-105.4,,,,,,,
11925.26,-0.00051,-108.5,,,,,,,
11925.29,-0.00053,-111.4,,,,,,,
11925.31,-0.00056,-114.1,,,,,,,
11925.32,-0.00059,-116.7,,,,,,,
11925.34,-0.00061,-119.4,,,,,,,
11925.36,-0.00064,-122.1,,,,,,,
11925.37,-0.00066,-124.7,,,,,,,
11925.39,-0.00069,-127.3,,,,,,,
11925.4,-0.00071,-130.0,,,,,,,
11925.42,-0.00074,-132.4,,,,,,,
11925.43,-0.00077,-134.9,,,,,,,
11925.45,-0.00079,-137.2,,,,,,,
11925.47,-0.00082,-139.4,,,,,,,
11925.48,-0.00084,-141.7,,,,,,,
11925.5,-0.00087,-143.8,,,,,,,
11925.51,-0.0009,-145.8,,,,,,,
11925.53,-0.00092,-147.7,,,,,,,
11925.56,-0.00095,-149.6,,,,,,,
11925.57,-0.00097,-151.8,,,,,,,
11925.59,-0.001,-153.7,,,,,,,
11925.61,-0.00102,-155.1,,,,,,,
11925.64,-0.00105,-156.7,,,,,,,
11925.65,-0.00107,-158.3,,,,,,,
11925.67,-0.0011,-159.9,,,,,,,
11925.7,-0.00113,-161.3,,,,,,,
11925.72,-0.00115,-162.6,,,,,,,
11925.75,-0.00118,-164.1,,,,,,,
11925.76,-0.0012,-165.2,,,,,,,
11925.78,-0.00121,-165.5,,,,,,,
11925.79,-0.00123,-166.6,,,,,,,
11925.81,-0.00125,-167.7,,,,,,,
11925.84,-0.00128,-166.6,,,,,,,
11925.84,-0.0013,-167.1,,,,,,,
11925.84,-0.00133,-167.0,,,,,,,
11925.86,-0.00136,-167.3,,,,,,,
11925.86,-0.00139,-167.8,,,,,,,
11925.87,-0.00142,-167.7,,,,,,,
11925.87,-0.00144,-168.2,,,,,,,
11925.89,-0.00147,-168.1,,,,,,,
11925.92,-0.00149,-167.7,,,,,,,
11925.98,-0.00152,-163.5,,,,,,,
11926.07,-0.00149,-151.2,,,,,,,
11926.11,-0.00147,-144.4,,,,,,,
11926.14,-0.00144,-138.8,,,,,,,
11926.15,-0.00142,-133.8,,,,,,,
11926.17,-0.00139,-129.2,,,,,,,
11926.2,-0.00137,-124.3,,,,,,,
11926.22,-0.00134,-120.4,,,,,,,
11926.23,-0.00132,-116.3,,,,,,,
11926.26,-0.00129,-112.2,,,,,,,
11926.28,-0.00126,-108.4,,,,,,,
11926.29,-0.00124,-104.3,,,,,,,
11926.32,-0.00121,-100.2,,,,,,,
11926.34,-0.00119,-96.52,,,,,,,
11926.37,-0.00116,-92.35,,,,,,,
11926.39,-0.00114,-88.98,,,,,,,
11926.42,-0.00111,-85.11,,,,,,,
11926.43,-0.00109,-81.38,,,,,,,
11926.47,-0.00106,-77.85,,,,,,,
11926.5,-0.00103,-74.65,,,,,,,
11926.51,-0.00101,-70.9,,,,,,,
11926.54,-0.00098,-66.57,,,,,,,
11926.57,-0.00096,-63.85,,,,,,,
11926.61,-0.00093,-59.83,,,,,,,
11926.64,-0.00091,-56.32,,,,,,,
11926.65,-0.00088,-52.96,,,,,,,
11926.68,-0.00085,-49.11,,,,,,,
11926.72,-0.00083,-45.58,,,,,,,
11926.75,-0.0008,-42.37,,,,,,,
11926.78,-0.00078,-38.85,,,,,,,
11926.79,-0.00075,-35.53,,,,,,,
11926.82,-0.00073,-31.69,,,,,,,
11926.86,-0.0007,-28.63,,,,,,,
11926.89,-0.00067,-25.48,,,,,,,
11926.9,-0.00065,-22.38,,,,,,,
11926.93,-0.00062,-18.59,,,,,,,
11926.97,-0.0006,-15.54,,,,,,,
11927.0,-0.00057,-12.36,,,,,,,
11927.03,-0.00055,-8.76,,,,,,,
11927.06,-0.00052,-4.45,,,,,,,
11927.09,-0.00049,-1.21,,,,,,,
11927.12,-0.00047,2.82,,,,,,,
11927.14,-0.00044,5.22,,,,,,,
11927.17,-0.00042,8.83,,,,,,,
11927.18,-0.00039,11.88,,,,,,,
11927.22,-0.00037,15.71,,,,,,,
11927.25,-0.00034,18.79,,,,,,,
11927.28,-0.00032,22.06,,,,,,,
11927.29,-0.00029,24.82,,,,,,,
11927.32,-0.00027,27.26,,,,,,,
11927.36,-0.00024,31.16,,,,,,,
11927.39,-0.00021,34.39,,,,,,,
11927.42,-0.00019,37.29,,,,,,,
11927.43,-0.00016,39.46,,,,,,,
11927.48,-0.00014,41.83,,,,,,,
11927.51,-0.00011,44.22,,,,,,,
11927.56,-9e-05,47.75,,,,,,,
11927.61,-6e-05,50.5,,,,,,,
11927.64,-4e-05,53.2,,,,,,,
11927.67,-1e-05,56.3,,,,,,,
11927.7,1e-05,59.44,,,,,,,
11927.73,4e-05,62.71,,,,,,,
11927.76,6e-05,65.27,,,,,,,
11927.78,7e-05,67.23,,,,,,,
11927.78,9e-05,69.01,,,,,,,
11927.81,0.00012,71.89,,,,,,,
11927.84,0.00014,75.73,,,,,,,
11927.86,0.00017,77.8,,,,,,,
11927.89,0.00019,81.47,,,,,,,
11927.9,0.00022,84.33,,,,,,,
11927.92,0.00024,86.14,,,,,,,
11927.95,0.00027,88.83,,,,,,,
11927.97,0.0003,91.59,,,,,,,
11928.0,0.00032,93.34,,,,,,,
11928.03,0.00035,95.77,,,,,,,
11928.06,0.00037,98.23,,,,,,,
11928.07,0.0004,100.49,,,,,,,
11928.11,0.00042,102.28,,,,,,,
11928.14,0.00045,104.76,,,,,,,
11928.17,0.00047,106.91,,,,,,,
11928.2,0.0005,109.31,,,,,,,
11928.23,0.00052,111.93,,,,,,,
11928.26,0.00055,114.2,,,,,,,
11928.28,0.00057,116.08,,,,,,,
11928.31,0.0006,118.57,,,,,,,
11928.34,0.00063,121.31,,,,,,,
11928.37,0.00065,123.47,,,,,,,
11928.39,0.00068,125.51,,,,,,,
11928.42,0.0007,127.32,,,,,,,
11928.45,0.00073,129.64,,,,,,,
11928.48,0.00075,132.48,,,,,,,
11928.51,0.00078,134.94,,,,,,,
11928.53,0.00081,137.16,,,,,,,
11928.54,0.00083,139.4,,,,,,,
11928.56,0.00086,142.02,,,,,,,
11928.59,0.00088,144.48,,,,,,,
11928.61,0.00091,147.18,,,,,,,
11928.62,0.00093,149.6,,,,,,,
11928.64,0.00096,151.71,,,,,,,
11928.65,0.00098,153.69,,,,,,,
11928.67,0.00101,156.33,,,,,,,
11928.7,0.00104,159.29,,,,,,,
11928.72,0.00106,161.29,,,,,,,
11928.73,0.00109,163.2,,,,,,,
11928.75,0.00112,164.36,,,,,,,
11928.76,0.00114,166.72,,,,,,,
11928.78,0.00116,167.65,,,,,,,
11928.78,0.00117,168.4,,,,,,,
11928.79,0.00119,169.43,,,,,,,
11928.81,0.00122,171.35,,,,,,,
11928.82,0.00124,171.08,,,,,,,
11928.84,0.00127,171.49,,,,,,,
11928.84,0.0013,171.75,,,,,,,
11928.84,0.00133,172.39,,,,,,,
11928.86,0.00135,172.85,,,,,,,
11928.86,0.00138,173.28,,,,,,,
11928.87,0.00141,173.76,,,,,,,
11928.89,0.00143,174.25,,,,,,,
26847.36,0.00133,174.1,,,,,,,
26847.37,0.00135,176.0,,,,,,,
26847.4,0.00138,176.96,,,,,,,
26847.43,0.0014,177.11,,,,,,,
26847.45,0.00143,177.16,,,,,,,
26847.47,0.00145,176.01,,,,,,,
26847.59,0.00143,157.69,,,,,,,
26847.62,0.0014,150.59,,,,,,,
26847.65,0.00138,144.88,,,,,,,
26847.67,0.00135,139.27,,,,,,,
26847.68,0.00133,134.91,,,,,,,
26847.7,0.0013,131.66,,,,,,,
26847.72,0.00127,129.07,,,,,,,
26847.73,0.00125,125.19,,,,,,,
26847.76,0.00122,120.08,,,,,,,
26847.78,0.00121,117.4,,,,,,,
26847.79,0.0012,114.46,,,,,,,
26847.81,0.00117,110.07,,,,,,,
26847.82,0.00115,106.74,,,,,,,
26847.84,0.00112,103.82,,,,,,,
26847.87,0.00109,100.46,,,,,,,
26847.89,0.00107,96.68,,,,,,,
26847.92,0.00104,92.65,,,,,,,
26847.93,0.00102,89.07,,,,,,,
26847.97,0.00099,86.0,,,,,,,
26847.98,0.00097,83.04,,,,,,,
26848.03,0.00094,77.61,,,,,,,
26848.06,0.00091,74.19,,,,,,,
26848.07,0.00089,71.39,,,,,,,
26848.09,0.00086,69.06,,,,,,,
26848.14,0.00084,63.36,,,,,,,
26848.17,0.00081,59.75,,,,,,,
26848.18,0.00079,56.39,,,,,,,
26848.23,0.00076,52.28,,,,,,,
26848.25,0.00073,49.27,,,,,,,
26848.28,0.00071,45.8,,,,,,,
26848.29,0.00068,43.52,,,,,,,
26848.34,0.00066,38.83,,,,,,,
26848.36,0.00063,35.42,,,,,,,
26848.39,0.00061,31.63,,,,,,,
26848.42,0.00058,28.72,,,,,,,
26848.45,0.00056,25.21,,,,,,,
26848.47,0.00053,21.96,,,,,,,
26848.5,0.00051,18.42,,,,,,,
26848.53,0.00048,14.64,,,,,,,
26848.56,0.00045,11.86,,,,,,,
26848.59,0.00043,7.72,,,,,,,
26848.62,0.0004,4.49,,,,,,,
26848.65,0.00038,0.93,,,,,,,
26848.67,0.00035,-2.13,,,,,,,
26848.7,0.00033,-5.03,,,,,,,
26848.73,0.0003,-8.24,,,,,,,
26848.75,0.00027,-11.19,,,,,,,
26848.78,0.00026,-13.02,,,,,,,
26848.78,0.00025,-13.95,,,,,,,
26848.81,0.00022,-16.93,,,,,,,
26848.86,0.0002,-19.19,,,,,,,
26848.92,0.00017,-21.77,,,,,,,
26848.98,0.00015,-24.83,,,,,,,
26849.03,0.00012,-28.65,,,,,,,
26849.06,0.0001,-33.43,,,,,,,
26849.09,7e-05,-37.09,,,,,,,
26849.11,5e-05,-40.4,,,,,,,
26849.14,2e-05,-43.98,,,,,,,
26849.15,-0.0,-47.13,,,,,,,
26849.17,-3e-05,-49.78,,,,,,,
26849.18,-6e-05,-52.75,,,,,,,
26849.22,-8e-05,-55.81,,,,,,,
26849.23,-0.00011,-58.55,,,,,,,
26849.26,-0.00013,-61.26,,,,,,,
26849.29,-0.00016,-64.8,,,,,,,
26849.31,-0.00018,-66.48,,,,,,,
26849.34,-0.00021,-69.39,,,,,,,
26849.37,-0.00023,-72.24,,,,,,,
26849.4,-0.00026,-74.2,,,,,,,
26849.43,-0.00028,-76.48,,,,,,,
26849.47,-0.00031,-79.18,,,,,,,
26849.5,-0.00033,-82.21,,,,,,,
26849.53,-0.00036,-84.61,,,,,,,
26849.56,-0.00039,-87.3,,,,,,,
26849.59,-0.00041,-89.45,,,,,,,
26849.62,-0.00044,-92.34,,,,,,,
26849.64,-0.00046,-94.82,,,,,,,
26849.67,-0.00049,-97.31,,,,,,,
26849.7,-0.00051,-99.89,,,,,,,
26849.72,-0.00054,-103.2,,,,,,,
26849.75,-0.00056,-105.6,,,,,,,
26849.76,-0.00059,-109.1,,,,,,,
26849.78,-0.0006,-110.1,,,,,,,
26849.78,-0.00062,-111.7,,,,,,,
26849.81,-0.00064,-114.4,,,,,,,
26849.82,-0.00067,-117.8,,,,,,,
26849.84,-0.00069,-120.6,,,,,,,
26849.86,-0.00072,-123.3,,,,,,,
26849.87,-0.00074,-126.0,,,,,,,
26849.89,-0.00077,-128.7,,,,,,,
26849.9,-0.0008,-131.1,,,,,,,
26849.92,-0.00082,-133.7,,,,,,,
26849.93,-0.00085,-136.2,,,,,,,
26849.95,-0.00087,-138.2,,,,,,,
26849.97,-0.0009,-140.6,,,,,,,
26849.98,-0.00092,-143.0,,,,,,,
26850.0,-0.00095,-145.0,,,,,,,
26850.03,-0.00097,-147.2,,,,,,,
26850.04,-0.001,-149.2,,,,,,,
26850.06,-0.00102,-151.7,,,,,,,
26850.07,-0.00105,-153.6,,,,,,,
26850.09,-0.00108,-155.5,,,,,,,
26850.11,-0.0011,-157.2,,,,,,,
26850.12,-0.00113,-158.7,,,,,,,
26850.15,-0.00115,-160.6,,,,,,,
26850.17,-0.00118,-161.8,,,,,,,
26850.18,-0.0012,-163.7,,,,,,,
26850.22,-0.00123,-165.1,,,,,,,
26850.23,-0.00126,-166.4,,,,,,,
26850.26,-0.00128,-167.7,,,,,,,
26850.28,-0.00131,-168.4,,,,,,,
26850.31,-0.00133,-170.0,,,,,,,
26850.32,-0.00136,-171.0,,,,,,,
26850.34,-0.00138,-171.8,,,,,,,
26850.37,-0.00141,-172.5,,,,,,,
26850.39,-0.00143,-172.9,,,,,,,
26850.42,-0.00146,-172.3,,,,,,,
26850.57,-0.00143,-150.0,,,,,,,
26850.59,-0.00141,-144.2,,,,,,,
26850.62,-0.00138,-139.2,,,,,,,
26850.64,-0.00136,-134.5,,,,,,,
26850.65,-0.00133,-130.6,,,,,,,
26850.67,-0.0013,-126.1,,,,,,,
26850.7,-0.00128,-121.9,,,,,,,
26850.72,-0.00125,-117.6,,,,,,,
26850.73,-0.00123,-114.1,,,,,,,
26850.75,-0.0012,-109.9,,,,,,,
26850.78,-0.00118,-106.2,,,,,,,
26850.78,-0.00118,-106.3,,,,,,,
26850.79,-0.00115,-102.4,,,,,,,
26850.81,-0.00113,-98.89,,,,,,,
26850.84,-0.0011,-94.7,,,,,,,
26850.86,-0.00108,-91.59,,,,,,,
26850.89,-0.00105,-87.76,,,,,,,
26850.9,-0.00103,-84.39,,,,,,,
26850.93,-0.001,-80.7,,,,,,,
26850.97,-0.00097,-76.67,,,,,,,
26851.0,-0.00095,-73.32,,,,,,,
26851.03,-0.00092,-69.55,,,,,,,
26851.06,-0.0009,-65.35,,,,,,,
26851.07,-0.00087,-61.64,,,,,,,
26851.11,-0.00085,-58.47,,,,,,,
26851.14,-0.00082,-54.7,,,,,,,
26851.17,-0.0008,-50.95,,,,,,,
26851.2,-0.00077,-46.96,,,,,,,
26851.22,-0.00075,-44.1,,,,,,,
26851.25,-0.00072,-40.31,,,,,,,
26851.28,-0.00069,-37.06,,,,,,,
26851.31,-0.00067,-33.47,,,,,,,
26851.32,-0.00064,-30.0,,,,,,,
26851.37,-0.00062,-25.25,,,,,,,
26851.39,-0.00059,-23.0,,,,,,,
26851.42,-0.00057,-19.96,,,,,,,
26851.43,-0.00054,-16.6,,,,,,,
26851.47,-0.00052,-13.09,,,,,,,
26851.5,-0.00049,-9.62,,,,,,,
26851.53,-0.00046,-6.57,,,,,,,
26851.56,-0.00044,-2.81,,,,,,,
26851.59,-0.00041,0.72,,,,,,,
26851.61,-0.00039,3.85,,,,,,,
26851.64,-0.00036,7.0,,,,,,,
26851.67,-0.00034,10.41,,,,,,,
26851.7,-0.00031,13.17,,,,,,,
26851.73,-0.00028,16.88,,,,,,,
26851.75,-0.00026,20.1,,,,,,,
26851.78,-0.00024,22.35,,,,,,,
26851.78,-0.00023,23.57,,,,,,,
26851.81,-0.00021,26.41,,,,,,,
26851.82,-0.00018,29.18,,,,,,,
26851.86,-0.00016,32.37,,,,,,,
26851.89,-0.00013,35.29,,,,,,,
26851.92,-0.00011,38.01,,,,,,,
26851.95,-8e-05,40.26,,,,,,,
26851.98,-6e-05,42.77,,,,,,,
26852.03,-3e-05,45.15,,,,,,,
26852.06,-1e-05,47.57,,,,,,,
26852.11,2e-05,50.48,,,,,,,
26852.14,5e-05,53.07,,,,,,,
26852.18,7e-05,56.47,,,,,,,
26852.22,0.0001,60.06,,,,,,,
26852.25,0.00012,63.26,,,,,,,
26852.26,0.00015,66.48,,,,,,,
26852.29,0.00017,70.39,,,,,,,
26852.32,0.0002,73.84,,,,,,,
26852.34,0.00022,76.56,,,,,,,
26852.36,0.00025,79.37,,,,,,,
26852.37,0.00027,82.08,,,,,,,
26852.42,0.0003,86.75,,,,,,,
26852.43,0.00033,88.9,,,,,,,
26852.45,0.00035,89.91,,,,,,,
26852.47,0.00038,92.76,,,,,,,
26852.5,0.0004,96.13,,,,,,,
26852.53,0.00043,98.12,,,,,,,
26852.54,0.00045,100.31,,,,,,,
26852.57,0.00048,102.77,,,,,,,
26852.61,0.00051,104.71,,,,,,,
26852.64,0.00053,107.07,,,,,,,
26852.67,0.00056,109.32,,,,,,,
26852.7,0.00058,111.85,,,,,,,
26852.73,0.00061,113.83,,,,,,,
26852.76,0.00063,116.19,,,,,,,
26852.78,0.00064,117.15,,,,,,,
26852.79,0.00066,118.56,,,,,,,
26852.81,0.00068,120.78,,,,,,,
26852.84,0.00071,122.86,,,,,,,
26852.87,0.00073,125.31,,,,,,,
26852.9,0.00076,128.06,,,,,,,
26852.92,0.00078,129.95,,,,,,,
26852.95,0.00081,132.15,,,,,,,
26852.98,0.00084,135.1,,,,,,,
26853.0,0.00086,137.15,,,,,,,
26853.03,0.00089,140.01,,,,,,,
26853.04,0.00091,142.85,,,,,,,
26853.06,0.00094,145.48,,,,,,,
26853.09,0.00096,148.13,,,,,,,
26853.11,0.00099,150.31,,,,,,,
26853.12,0.00101,152.75,,,,,,,
26853.14,0.00104,155.27,,,,,,,
26853.15,0.00107,157.5,,,,,,,
26853.17,0.00109,159.81,,,,,,,
26853.18,0.00112,162.18,,,,,,,
26853.22,0.00114,164.24,,,,,,,
26853.23,0.00117,166.49,,,,,,,
26853.25,0.0012,168.53,,,,,,,
26853.26,0.00122,170.28,,,,,,,
26853.28,0.00125,172.17,,,,,,,
26853.29,0.00127,174.29,,,,,,,
26853.31,0.0013,175.39,,,,,,,
29832.25,0.00132,172.32,,,,,,,
29832.26,0.00135,173.7,,,,,,,
29832.28,0.00137,174.7,,,,,,,
29832.29,0.0014,174.04,,,,,,,
29832.32,0.00142,173.93,,,,,,,
29832.36,0.00145,172.31,,,,,,,
29832.48,0.00142,151.13,,,,,,,
29832.51,0.0014,145.6,,,,,,,
29832.53,0.00137,141.01,,,,,,,
29832.54,0.00135,137.12,,,,,,,
29832.57,0.00132,131.49,,,,,,,
29832.59,0.0013,127.63,,,,,,,
29832.61,0.00127,123.71,,,,,,,
29832.62,0.00125,118.76,,,,,,,
29832.64,0.00122,115.65,,,,,,,
29832.67,0.0012,110.4,,,,,,,
29832.68,0.00117,107.62,,,,,,,
29832.72,0.00114,102.8,,,,,,,
29832.73,0.00112,99.98,,,,,,,
29832.75,0.00109,95.47,,,,,,,
29832.78,0.00107,92.16,,,,,,,
29832.81,0.00104,87.58,,,,,,,
29832.82,0.00102,83.88,,,,,,,
29832.86,0.00099,80.5,,,,,,,
29832.89,0.00096,76.22,,,,,,,
29832.9,0.00094,73.22,,,,,,,
29832.93,0.00091,69.82,,,,,,,
29832.97,0.00089,65.17,,,,,,,
29833.0,0.00086,61.94,,,,,,,
29833.03,0.00084,59.02,,,,,,,
29833.06,0.00081,53.78,,,,,,,
29833.07,0.00078,50.86,,,,,,,
29833.12,0.00076,46.58,,,,,,,
29833.15,0.00073,42.77,,,,,,,
29833.17,0.00071,39.81,,,,,,,
29833.2,0.00068,35.98,,,,,,,
29833.23,0.00066,31.54,,,,,,,
29833.26,0.00063,28.71,,,,,,,
29833.29,0.0006,24.15,,,,,,,
29833.31,0.00058,21.16,,,,,,,
29833.36,0.00055,16.71,,,,,,,
29833.37,0.00053,13.49,,,,,,,
29833.4,0.0005,9.15,,,,,,,
29833.43,0.00048,5.64,,,,,,,
29833.45,0.00045,3.24,,,,,,,
29833.48,0.00043,-0.07,,,,,,,
29833.51,0.0004,-3.38,,,,,,,
29833.53,0.00038,-6.05,,,,,,,
29833.56,0.00035,-9.97,,,,,,,
29833.59,0.00033,-13.7,,,,,,,
29833.62,0.0003,-15.61,,,,,,,
29833.65,0.00027,-18.7,,,,,,,
29833.68,0.00025,-20.22,,,,,,,
29833.75,0.00022,-23.31,,,,,,,
29833.78,0.00022,-24.23,,,,,,,
29833.81,0.0002,-26.22,,,,,,,
29833.86,0.00017,-30.12,,,,,,,
29833.89,0.00015,-34.32,,,,,,,
29833.92,0.00012,-38.9,,,,,,,
29833.93,0.0001,-42.56,,,,,,,
29833.97,7e-05,-45.29,,,,,,,
29833.98,4e-05,-48.84,,,,,,,
29834.0,2e-05,-51.52,,,,,,,
29834.03,-1e-05,-54.52,,,,,,,
29834.04,-3e-05,-57.61,,,,,,,
29834.06,-6e-05,-60.43,,,,,,,
29834.09,-9e-05,-63.09,,,,,,,
29834.12,-0.00011,-65.84,,,,,,,
29834.14,-0.00014,-68.27,,,,,,,
29834.17,-0.00016,-70.39,,,,,,,
29834.2,-0.00019,-73.49,,,,,,,
29834.23,-0.00021,-75.95,,,,,,,
29834.26,-0.00024,-78.03,,,,,,,
29834.29,-0.00026,-80.95,,,,,,,
29834.32,-0.00029,-83.27,,,,,,,
29834.36,-0.00031,-86.01,,,,,,,
29834.39,-0.00034,-88.08,,,,,,,
29834.42,-0.00036,-90.87,,,,,,,
29834.45,-0.00039,-93.78,,,,,,,
29834.47,-0.00041,-95.78,,,,,,,
29834.5,-0.00044,-98.52,,,,,,,
29834.53,-0.00047,-101.1,,,,,,,
29834.56,-0.00049,-104.5,,,,,,,
29834.57,-0.00052,-107.3,,,,,,,
29834.59,-0.00054,-110.5,,,,,,,
29834.62,-0.00057,-113.3,,,,,,,
29834.64,-0.00059,-116.0,,,,,,,
29834.65,-0.00062,-118.7,,,,,,,
29834.67,-0.00065,-121.4,,,,,,,
29834.68,-0.00067,-124.4,,,,,,,
29834.7,-0.0007,-126.7,,,,,,,
29834.72,-0.00072,-129.5,,,,,,,
29834.73,-0.00075,-131.9,,,,,,,
29834.75,-0.00077,-134.6,,,,,,,
29834.76,-0.0008,-137.0,,,,,,,
29834.78,-0.00081,-137.7,,,,,,,
29834.78,-0.00082,-139.3,,,,,,,
29834.79,-0.00085,-141.9,,,,,,,
29834.81,-0.00087,-143.8,,,,,,,
29834.84,-0.0009,-146.1,,,,,,,
29834.86,-0.00093,-148.3,,,,,,,
29834.87,-0.00095,-150.2,,,,,,,
29834.89,-0.00098,-152.0,,,,,,,
29834.9,-0.001,-153.6,,,,,,,
29834.92,-0.00103,-155.7,,,,,,,
29834.93,-0.00106,-157.3,,,,,,,
29834.97,-0.00108,-158.9,,,,,,,
29834.98,-0.00111,-160.3,,,,,,,
29835.0,-0.00113,-161.8,,,,,,,
29835.01,-0.00116,-163.2,,,,,,,
29835.04,-0.00118,-164.4,,,,,,,
29835.06,-0.00121,-165.4,,,,,,,
29835.07,-0.00123,-166.7,,,,,,,
29835.11,-0.00126,-167.6,,,,,,,
29835.12,-0.00129,-167.8,,,,,,,
29835.15,-0.00131,-169.0,,,,,,,
29835.18,-0.00134,-169.8,,,,,,,
29835.2,-0.00136,-170.8,,,,,,,
29835.23,-0.00139,-171.6,,,,,,,
29835.26,-0.00141,-172.1,,,,,,,
29835.28,-0.00144,-172.0,,,,,,,
29835.32,-0.00146,-170.3,,,,,,,
29835.45,-0.00144,-151.3,,,,,,,
29835.47,-0.00141,-145.3,,,,,,,
29835.5,-0.00139,-140.3,,,,,,,
29835.51,-0.00136,-135.7,,,,,,,
29835.53,-0.00134,-131.2,,,,,,,
29835.56,-0.00131,-126.1,,,,,,,
29835.57,-0.00128,-121.8,,,,,,,
29835.59,-0.00126,-117.5,,,,,,,
29835.61,-0.00123,-113.5,,,,,,,
29835.64,-0.00121,-109.6,,,,,,,
29835.65,-0.00118,-105.2,,,,,,,
29835.67,-0.00116,-101.6,,,,,,,
29835.7,-0.00113,-97.97,,,,,,,
29835.72,-0.0011,-93.85,,,,,,,
29835.75,-0.00108,-90.64,,,,,,,
29835.76,-0.00105,-87.16,,,,,,,
29835.78,-0.00105,-85.9,,,,,,,
29835.79,-0.00103,-83.14,,,,,,,
29835.81,-0.001,-79.55,,,,,,,
29835.84,-0.00098,-75.74,,,,,,,
29835.87,-0.00095,-71.74,,,,,,,
29835.9,-0.00093,-68.88,,,,,,,
29835.92,-0.0009,-65.11,,,,,,,
29835.95,-0.00088,-61.09,,,,,,,
29835.98,-0.00085,-57.7,,,,,,,
29836.01,-0.00082,-53.67,,,,,,,
29836.04,-0.0008,-50.59,,,,,,,
29836.06,-0.00077,-47.03,,,,,,,
29836.09,-0.00075,-43.26,,,,,,,
29836.12,-0.00072,-39.72,,,,,,,
29836.15,-0.0007,-36.58,,,,,,,
29836.18,-0.00067,-33.15,,,,,,,
29836.22,-0.00065,-29.32,,,,,,,
29836.23,-0.00062,-25.86,,,,,,,
29836.26,-0.0006,-22.48,,,,,,,
29836.29,-0.00057,-19.34,,,,,,,
29836.31,-0.00054,-16.07,,,,,,,
29836.34,-0.00052,-12.71,,,,,,,
29836.37,-0.00049,-9.19,,,,,,,
29836.4,-0.00047,-5.97,,,,,,,
29836.43,-0.00044,-2.63,,,,,,,
29836.45,-0.00042,0.87,,,,,,,
29836.48,-0.00039,4.49,,,,,,,
29836.51,-0.00037,7.12,,,,,,,
29836.54,-0.00034,10.51,,,,,,,
29836.56,-0.00032,13.37,,,,,,,
29836.59,-0.00029,16.65,,,,,,,
29836.62,-0.00026,20.21,,,,,,,
29836.65,-0.00024,23.9,,,,,,,
29836.67,-0.00021,25.81,,,,,,,
29836.7,-0.00019,29.06,,,,,,,
29836.73,-0.00016,32.17,,,,,,,
29836.76,-0.00014,35.54,,,,,,,
29836.78,-0.00013,36.41,,,,,,,
29836.79,-0.00011,38.52,,,,,,,
29836.82,-9e-05,40.88,,,,,,,
29836.86,-6e-05,43.23,,,,,,,
29836.9,-3e-05,46.36,,,,,,,
29836.93,-1e-05,48.76,,,,,,,
29836.98,2e-05,50.95,,,,,,,
29837.01,4e-05,53.65,,,,,,,
29837.06,7e-05,57.38,,,,,,,
29837.07,9e-05,59.97,,,,,,,
29837.11,0.00012,63.77,,,,,,,
29837.14,0.00014,66.19,,,,,,,
29837.15,0.00017,69.38,,,,,,,
29837.18,0.00019,72.19,,,,,,,
29837.2,0.00022,75.45,,,,,,,
29837.23,0.00024,78.21,,,,,,,
29837.25,0.00027,80.88,,,,,,,
29837.28,0.0003,83.71,,,,,,,
29837.29,0.00032,85.85,,,,,,,
29837.31,0.00035,88.2,,,,,,,
29837.34,0.00037,90.59,,,,,,,
29837.37,0.0004,92.97,,,,,,,
29837.4,0.00042,95.5,,,,,,,
29837.42,0.00045,97.57,,,,,,,
29837.47,0.00047,100.08,,,,,,,
29837.48,0.0005,102.59,,,,,,,
29837.51,0.00053,104.27,,,,,,,
29837.54,0.00055,106.61,,,,,,,
29837.57,0.00058,108.89,,,,,,,
29837.61,0.0006,110.46,,,,,,,
29837.62,0.00063,113.06,,,,,,,
29837.67,0.00065,115.85,,,,,,,
29837.68,0.00068,117.87,,,,,,,
29837.72,0.0007,120.54,,,,,,,
29837.75,0.00073,122.46,,,,,,,
29837.78,0.00075,124.89,,,,,,,
29837.78,0.00075,125.22,,,,,,,
29837.79,0.00078,127.21,,,,,,,
29837.82,0.00081,129.38,,,,,,,
29837.86,0.00083,131.69,,,,,,,
29837.87,0.00086,133.85,,,,,,,
29837.89,0.00088,136.44,,,,,,,
29837.92,0.00091,138.67,,,,,,,
29837.93,0.00093,140.59,,,,,,,
29837.95,0.00096,143.0,,,,,,,
29837.97,0.00098,145.65,,,,,,,
29837.98,0.00101,147.73,,,,,,,
29838.0,0.00103,149.78,,,,,,,
29838.03,0.00106,152.48,,,,,,,
29838.04,0.00109,154.65,,,,,,,
29838.06,0.00111,156.91,,,,,,,
29838.07,0.00114,159.29,,,,,,,
29838.09,0.00116,161.18,,,,,,,
29838.11,0.00119,162.65,,,,,,,
29838.12,0.00121,164.79,,,,,,,
29838.15,0.00124,166.28,,,,,,,
29838.17,0.00127,168.04,,,,,,,
29838.18,0.00129,169.5,,,,,,,
48338.76,0.00131,162.42,,,,,,,
48338.78,0.00133,163.61,,,,,,,
48338.78,0.00133,163.78,,,,,,,
48338.79,0.00136,165.1,,,,,,,
48338.81,0.00138,165.52,,,,,,,
48338.82,0.00141,165.98,,,,,,,
48338.86,0.00143,165.84,,,,,,,
48338.89,0.00146,163.88,,,,,,,
48339.0,0.00143,145.69,,,,,,,
48339.03,0.00141,140.11,,,,,,,
48339.04,0.00138,135.31,,,,,,,
48339.07,0.00136,130.76,,,,,,,
48339.09,0.00133,126.41,,,,,,,
48339.11,0.00131,121.59,,,,,,,
48339.12,0.00128,117.76,,,,,,,
48339.15,0.00126,114.23,,,,,,,
48339.17,0.00123,110.42,,,,,,,
48339.18,0.0012,107.1,,,,,,,
48339.2,0.00118,103.42,,,,,,,
48339.22,0.00115,99.97,,,,,,,
48339.25,0.00113,96.22,,,,,,,
48339.26,0.0011,92.57,,,,,,,
48339.29,0.00108,88.71,,,,,,,
48339.31,0.00105,85.84,,,,,,,
48339.34,0.00103,82.54,,,,,,,
48339.37,0.001,78.97,,,,,,,
48339.4,0.00097,74.73,,,,,,,
48339.42,0.00095,71.67,,,,,,,
48339.45,0.00092,68.04,,,,,,,
48339.48,0.0009,64.53,,,,,,,
48339.51,0.00087,61.19,,,,,,,
48339.53,0.00085,58.34,,,,,,,
48339.56,0.00082,54.31,,,,,,,
48339.57,0.0008,52.24,,,,,,,
48339.62,0.00077,47.11,,,,,,,
48339.65,0.00075,44.96,,,,,,,
48339.67,0.00072,41.88,,,,,,,
48339.7,0.00069,38.35,,,,,,,
48339.73,0.00067,34.41,,,,,,,
48339.76,0.00064,31.04,,,,,,,
48339.78,0.00063,30.18,,,,,,,
48339.79,0.00062,27.03,,,,,,,
48339.82,0.00059,24.37,,,,,,,
48339.86,0.00057,21.4,,,,,,,
48339.87,0.00054,17.58,,,,,,,
48339.9,0.00051,14.77,,,,,,,
48339.93,0.00049,11.52,,,,,,,
48339.97,0.00046,8.32,,,,,,,
48339.98,0.00044,4.98,,,,,,,
48340.01,0.00041,2.01,,,,,,,
48340.04,0.00039,-1.28,,,,,,,
48340.07,0.00036,-4.15,,,,,,,
48340.09,0.00034,-6.75,,,,,,,
48340.12,0.00031,-9.53,,,,,,,
48340.15,0.00029,-12.15,,,,,,,
48340.18,0.00026,-14.83,,,,,,,
48340.22,0.00023,-17.28,,,,,,,
48340.26,0.00021,-19.26,,,,,,,
48340.32,0.00018,-21.6,,,,,,,
48340.37,0.00016,-24.2,,,,,,,
48340.42,0.00013,-28.13,,,,,,,
48340.45,0.00011,-32.45,,,,,,,
48340.48,8e-05,-36.07,,,,,,,
48340.5,6e-05,-38.77,,,,,,,
48340.51,3e-05,-41.63,,,,,,,
48340.54,1e-05,-45.23,,,,,,,
48340.56,-2e-05,-47.65,,,,,,,
48340.57,-4e-05,-49.99,,,,,,,
48340.59,-7e-05,-52.78,,,,,,,
48340.62,-9e-05,-54.96,,,,,,,
48340.64,-0.00012,-58.22,,,,,,,
48340.67,-0.00015,-60.4,,,,,,,
48340.7,-0.00017,-62.83,,,,,,,
48340.72,-0.0002,-64.84,,,,,,,
48340.75,-0.00022,-67.5,,,,,,,
48340.78,-0.00024,-68.96,,,,,,,
48340.78,-0.00025,-69.58,,,,,,,
48340.81,-0.00027,-71.97,,,,,,,
48340.84,-0.0003,-74.11,,,,,,,
48340.87,-0.00032,-76.44,,,,,,,
48340.9,-0.00035,-79.0,,,,,,,
48340.93,-0.00037,-81.34,,,,,,,
48340.97,-0.0004,-83.71,,,,,,,
48341.0,-0.00042,-86.0,,,,,,,
48341.03,-0.00045,-88.24,,,,,,,
48341.06,-0.00048,-90.74,,,,,,,
48341.07,-0.0005,-93.23,,,,,,,
48341.11,-0.00053,-95.36,,,,,,,
48341.12,-0.00055,-97.98,,,,,,,
48341.15,-0.00058,-100.3,,,,,,,
48341.18,-0.0006,-103.5,,,,,,,
48341.2,-0.00063,-106.5,,,,,,,
48341.22,-0.00066,-108.9,,,,,,,
48341.23,-0.00068,-111.1,,,,,,,
48341.25,-0.00071,-113.8,,,,,,,
48341.26,-0.00073,-116.1,,,,,,,
48341.28,-0.00076,-118.5,,,,,,,
48341.29,-0.00078,-120.9,,,,,,,
48341.31,-0.00081,-123.2,,,,,,,
48341.32,-0.00083,-125.5,,,,,,,
48341.34,-0.00086,-127.7,,,,,,,
48341.36,-0.00088,-129.7,,,,,,,
48341.37,-0.00091,-131.9,,,,,,,
48341.39,-0.00094,-133.6,,,,,,,
48341.4,-0.00096,-135.9,,,,,,,
48341.43,-0.00099,-137.7,,,,,,,
48341.45,-0.00101,-139.6,,,,,,,
48341.47,-0.00104,-141.3,,,,,,,
48341.48,-0.00106,-142.9,,,,,,,
48341.5,-0.00109,-144.2,,,,,,,
48341.51,-0.00112,-146.1,,,,,,,
48341.54,-0.00114,-147.6,,,,,,,
48341.56,-0.00117,-148.9,,,,,,,
48341.57,-0.00119,-150.6,,,,,,,
48341.61,-0.00122,-151.6,,,,,,,
48341.62,-0.00124,-152.9,,,,,,,
48341.65,-0.00127,-154.6,,,,,,,
48341.67,-0.00129,-155.5,,,,,,,
48341.7,-0.00132,-156.9,,,,,,,
48341.73,-0.00135,-158.3,,,,,,,
48341.75,-0.00137,-159.3,,,,,,,
48341.78,-0.00139,-160.0,,,,,,,
48341.78,-0.0014,-160.5,,,,,,,
48341.81,-0.00142,-160.9,,,,,,,
48341.86,-0.00145,-159.7,,,,,,,
48341.97,-0.00142,-145.0,,,,,,,
48342.0,-0.0014,-138.5,,,,,,,
48342.03,-0.00137,-133.7,,,,,,,
48342.04,-0.00134,-129.2,,,,,,,
48342.07,-0.00132,-124.2,,,,,,,
48342.09,-0.00129,-120.7,,,,,,,
48342.11,-0.00127,-116.9,,,,,,,
48342.14,-0.00124,-111.8,,,,,,,
48342.15,-0.00122,-108.2,,,,,,,
48342.17,-0.00119,-103.9,,,,,,,
48342.2,-0.00117,-100.7,,,,,,,
48342.22,-0.00114,-97.11,,,,,,,
48342.23,-0.00111,-93.2,,,,,,,
48342.26,-0.00109,-89.67,,,,,,,
48342.28,-0.00106,-85.93,,,,,,,
48342.31,-0.00104,-82.41,,,,,,,
48342.34,-0.00101,-78.88,,,,,,,
48342.36,-0.00099,-75.59,,,,,,,
48342.39,-0.00096,-72.01,,,,,,,
48342.42,-0.00094,-68.5,,,,,,,
48342.43,-0.00091,-64.8,,,,,,,
48342.47,-0.00088,-61.72,,,,,,,
48342.5,-0.00086,-58.16,,,,,,,
48342.53,-0.00083,-54.73,,,,,,,
48342.56,-0.00081,-51.11,,,,,,,
48342.59,-0.00078,-47.41,,,,,,,
48342.62,-0.00076,-44.35,,,,,,,
48342.64,-0.00073,-40.74,,,,,,,
48342.67,-0.00071,-37.23,,,,,,,
48342.7,-0.00068,-33.98,,,,,,,
48342.73,-0.00066,-30.23,,,,,,,
48342.75,-0.00063,-27.1,,,,,,,
48342.78,-0.00061,-24.73,,,,,,,
48342.79,-0.00061,-22.51,,,,,,,
48342.81,-0.00058,-20.13,,,,,,,
48342.82,-0.00055,-17.88,,,,,,,
48342.86,-0.00053,-14.25,,,,,,,
48342.89,-0.0005,-10.96,,,,,,,
48342.92,-0.00048,-8.02,,,,,,,
48342.93,-0.00045,-5.32,,,,,,,
48342.97,-0.00043,-2.49,,,,,,,
48343.0,-0.0004,1.0,,,,,,,
48343.03,-0.00038,4.2,,,,,,,
48343.04,-0.00035,7.56,,,,,,,
48343.07,-0.00032,9.85,,,,,,,
48343.11,-0.0003,12.7,,,,,,,
48343.14,-0.00027,15.8,,,,,,,
48343.15,-0.00025,18.91,,,,,,,
48343.18,-0.00022,21.66,,,,,,,
48343.22,-0.0002,24.31,,,,,,,
48343.23,-0.00017,26.89,,,,,,,
48343.28,-0.00015,31.17,,,,,,,
48343.29,-0.00012,33.06,,,,,,,
48343.31,-0.0001,34.58,,,,,,,
48343.37,-7e-05,38.89,,,,,,,
48343.39,-4e-05,40.72,,,,,,,
48343.45,-2e-05,43.86,,,,,,,
48343.48,1e-05,46.79,,,,,,,
48343.53,3e-05,49.09,,,,,,,
48343.54,6e-05,50.97,,,,,,,
48343.59,8e-05,53.7,,,,,,,
48343.64,0.00011,57.83,,,,,,,
48343.67,0.00013,60.59,,,,,,,
48343.68,0.00016,63.82,,,,,,,
48343.7,0.00018,66.26,,,,,,,
48343.73,0.00021,69.11,,,,,,,
48343.75,0.00024,72.22,,,,,,,
48343.78,0.00026,74.54,,,,,,,
48343.78,0.00026,74.64,,,,,,,
48343.79,0.00029,77.23,,,,,,,
48343.81,0.00031,79.52,,,,,,,
48343.82,0.00034,81.75,,,,,,,
48343.86,0.00036,84.42,,,,,,,
48343.87,0.00039,86.75,,,,,,,
48343.9,0.00041,88.43,,,,,,,
48343.92,0.00044,90.67,,,,,,,
48343.95,0.00046,93.0,,,,,,,
48343.98,0.00049,94.7,,,,,,,
48344.01,0.00051,96.81,,,,,,,
48344.04,0.00054,98.53,,,,,,,
48344.07,0.00056,100.57,,,,,,,
48344.11,0.00059,102.53,,,,,,,
48344.14,0.00062,104.8,,,,,,,
48344.17,0.00064,106.91,,,,,,,
48344.2,0.00067,109.17,,,,,,,
48344.22,0.00069,111.28,,,,,,,
48344.26,0.00072,114.42,,,,,,,
48344.28,0.00074,116.49,,,,,,,
48344.31,0.00077,118.01,,,,,,,
48344.32,0.00079,119.94,,,,,,,
48344.37,0.00082,123.68,,,,,,,
48344.39,0.00085,125.28,,,,,,,
48344.42,0.00087,126.95,,,,,,,
48344.43,0.0009,129.29,,,,,,,
48344.47,0.00092,131.78,,,,,,,
48344.48,0.00095,133.73,,,,,,,
48344.5,0.00098,135.59,,,,,,,
48344.51,0.001,137.63,,,,,,,
48344.54,0.00103,141.05,,,,,,,
48344.56,0.00105,143.19,,,,,,,
48344.57,0.00108,144.88,,,,,,,
48344.59,0.00111,147.41,,,,,,,
48344.62,0.00113,150.1,,,,,,,
48344.64,0.00116,152.43,,,,,,,
48344.65,0.00118,154.5,,,,,,,
48344.67,0.00121,156.46,,,,,,,
48344.68,0.00123,158.2,,,,,,,
48344.7,0.00126,159.8,,,,,,,
48344.72,0.00128,161.65,,,,,,,
