time,strain,stress,temperature,type,strain_rate,max_strain,title,youngs,poissons
0.0,7e-05,6.24,950,fatigue,0.001,0.00145,F-12,144000,0.3
0.02,7e-05,7.62,,,,,,,
0.05,0.0001,11.37,,,,,,,
0.08,0.00012,14.92,,,,,,,
0.1,0.00014,17.26,,,,,,,
0.11,0.00015,18.11,,,,,,,
0.14,0.00017,21.69,,,,,,,
0.17,0.0002,25.19,,,,,,,
0.2,0.00022,28.61,,,,,,,
0.2,0.00022,28.83,,,,,,,
0.23,0.00025,32.25,,,,,,,
0.27,0.00027,35.8,,,,,,,
0.3,0.0003,39.36,,,,,,,
0.3,0.0003,39.44,,,,,,,
0.33,0.00032,43.17,,,,,,,
0.36,0.00035,46.33,,,,,,,
0.39,0.00038,50.18,,,,,,,
0.4,0.00038,51.5,,,,,,,
0.42,0.0004,53.85,,,,,,,
0.44,0.00043,57.42,,,,,,,
0.47,0.00045,60.88,,,,,,,
0.49,0.00048,64.57,,,,,,,
0.5,0.00048,65.59,,,,,,,
0.52,0.0005,67.84,,,,,,,
0.54,0.00053,71.62,,,,,,,
0.57,0.00055,75.54,,,,,,,
0.6,0.00058,79.24,,,,,,,
0.6,0.00058,79.57,,,,,,,
0.62,0.0006,82.98,,,,,,,
0.64,0.00063,85.93,,,,,,,
0.67,0.00065,89.47,,,,,,,
0.69,0.00068,92.83,,,,,,,
0.7,0.00068,93.2,,,,,,,
0.72,0.0007,95.98,,,,,,,
0.74,0.00073,98.39,,,,,,,
0.77,0.00076,101.79,,,,,,,
0.8,0.00078,105.3,,,,,,,
0.8,0.00078,105.43,,,,,,,
0.83,0.00081,108.68,,,,,,,
0.85,0.00083,112.27,,,,,,,
0.88,0.00086,115.35,,,,,,,
0.9,0.00087,118.07,,,,,,,
0.9,0.00088,118.81,,,,,,,
0.93,0.00091,122.34,,,,,,,
0.96,0.00093,124.92,,,,,,,
1.0,0.00094,124.85,,,,,,,
1.07,0.00091,118.78,,,,,,,
1.1,0.00089,116.11,,,,,,,
1.11,0.00088,114.97,,,,,,,
1.14,0.00086,111.03,,,,,,,
1.17,0.00083,107.21,,,,,,,
1.19,0.00081,103.44,,,,,,,
1.2,0.0008,103.26,,,,,,,
1.23,0.00078,99.52,,,,,,,
1.25,0.00076,95.85,,,,,,,
1.28,0.00073,92.24,,,,,,,
1.3,0.00071,90.22,,,,,,,
1.3,0.00071,89.5,,,,,,,
1.33,0.00068,86.44,,,,,,,
1.36,0.00065,82.81,,,,,,,
1.39,0.00063,78.84,,,,,,,
1.39,0.00063,78.51,,,,,,,
1.42,0.0006,75.12,,,,,,,
1.45,0.00058,71.68,,,,,,,
1.47,0.00055,67.97,,,,,,,
1.49,0.00053,65.09,,,,,,,
1.5,0.00053,64.33,,,,,,,
1.53,0.0005,60.75,,,,,,,
1.55,0.00048,57.08,,,,,,,
1.58,0.00045,53.67,,,,,,,
1.59,0.00044,52.17,,,,,,,
1.61,0.00043,49.87,,,,,,,
1.64,0.0004,46.29,,,,,,,
1.66,0.00038,42.83,,,,,,,
1.69,0.00035,38.89,,,,,,,
1.69,0.00035,38.79,,,,,,,
1.72,0.00033,35.55,,,,,,,
1.75,0.0003,31.89,,,,,,,
1.77,0.00028,28.26,,,,,,,
1.79,0.00026,25.68,,,,,,,
1.8,0.00025,24.8,,,,,,,
1.83,0.00023,21.28,,,,,,,
1.86,0.0002,17.58,,,,,,,
1.88,0.00018,14.35,,,,,,,
1.89,0.00017,13.09,,,,,,,
1.92,0.00015,10.76,,,,,,,
1.95,0.00013,7.35,,,,,,,
1.98,0.0001,4.26,,,,,,,
1.99,9e-05,3.27,,,,,,,
2.02,8e-05,0.24,,,,,,,
2.04,5e-05,-3.09,,,,,,,
2.07,2e-05,-6.45,,,,,,,
2.09,1e-05,-8.82,,,,,,,
2.1,-0.0,-9.89,,,,,,,
2.13,-3e-05,-13.66,,,,,,,
2.16,-5e-05,-17.12,,,,,,,
2.19,-8e-05,-20.62,,,,,,,
2.19,-8e-05,-21.58,,,,,,,
2.21,-0.0001,-24.03,,,,,,,
2.24,-0.00013,-27.42,,,,,,,
2.26,-0.00015,-30.82,,,,,,,
2.29,-0.00018,-34.65,,,,,,,
2.29,-0.00018,-35.35,,,,,,,
2.31,-0.0002,-38.0,,,,,,,
2.33,-0.00023,-41.41,,,,,,,
2.35,-0.00025,-44.95,,,,,,,
2.37,-0.00028,-48.19,,,,,,,
2.39,-0.0003,-51.07,,,,,,,
2.39,-0.0003,-51.64,,,,,,,
2.42,-0.00033,-54.93,,,,,,,
2.44,-0.00035,-58.45,,,,,,,
2.47,-0.00038,-62.0,,,,,,,
2.49,-0.0004,-65.23,,,,,,,
2.49,-0.0004,-65.27,,,,,,,
2.52,-0.00043,-68.57,,,,,,,
2.54,-0.00045,-72.08,,,,,,,
2.57,-0.00048,-75.5,,,,,,,
2.59,-0.0005,-78.05,,,,,,,
2.6,-0.0005,-78.74,,,,,,,
2.62,-0.00053,-81.93,,,,,,,
2.65,-0.00056,-84.99,,,,,,,
2.67,-0.00058,-88.01,,,,,,,
2.69,-0.0006,-90.04,,,,,,,
2.69,-0.00061,-90.48,,,,,,,
2.72,-0.00063,-93.57,,,,,,,
2.75,-0.00066,-97.02,,,,,,,
2.77,-0.00068,-100.6,,,,,,,
2.79,-0.00069,-102.6,,,,,,,
2.8,-0.00071,-103.7,,,,,,,
2.83,-0.00073,-107.5,,,,,,,
2.86,-0.00076,-110.8,,,,,,,
2.89,-0.00078,-114.2,,,,,,,
2.89,-0.00078,-114.6,,,,,,,
2.91,-0.00081,-117.5,,,,,,,
2.94,-0.00083,-120.8,,,,,,,
2.96,-0.00086,-123.4,,,,,,,
2.99,-0.00086,-123.5,,,,,,,
3.07,-0.00083,-117.3,,,,,,,
3.09,-0.00082,-115.8,,,,,,,
3.11,-0.00081,-113.4,,,,,,,
3.14,-0.00078,-109.1,,,,,,,
3.16,-0.00076,-105.5,,,,,,,
3.19,-0.00074,-102.6,,,,,,,
3.2,-0.00073,-101.6,,,,,,,
3.22,-0.00071,-97.51,,,,,,,
3.25,-0.00068,-94.0,,,,,,,
3.27,-0.00066,-90.33,,,,,,,
3.29,-0.00064,-88.62,,,,,,,
3.3,-0.00063,-86.84,,,,,,,
3.33,-0.00061,-83.18,,,,,,,
3.35,-0.00058,-80.32,,,,,,,
3.38,-0.00056,-77.59,,,,,,,
3.39,-0.00055,-76.41,,,,,,,
3.41,-0.00053,-73.92,,,,,,,
3.44,-0.0005,-70.34,,,,,,,
3.47,-0.00048,-66.72,,,,,,,
3.49,-0.00046,-64.3,,,,,,,
3.5,-0.00045,-62.86,,,,,,,
3.52,-0.00043,-59.09,,,,,,,
3.55,-0.0004,-55.64,,,,,,,
3.58,-0.00038,-52.03,,,,,,,
3.59,-0.00037,-50.77,,,,,,,
3.61,-0.00035,-48.04,,,,,,,
3.63,-0.00033,-44.36,,,,,,,
3.66,-0.0003,-40.69,,,,,,,
3.69,-0.00028,-37.18,,,,,,,
3.69,-0.00028,-37.09,,,,,,,
3.71,-0.00025,-33.54,,,,,,,
3.74,-0.00023,-30.08,,,,,,,
3.77,-0.0002,-26.37,,,,,,,
3.79,-0.00018,-23.97,,,,,,,
3.8,-0.00018,-22.65,,,,,,,
3.82,-0.00015,-19.03,,,,,,,
3.85,-0.00013,-15.54,,,,,,,
3.87,-0.0001,-12.16,,,,,,,
3.88,-9e-05,-10.41,,,,,,,
3.9,-8e-05,-8.32,,,,,,,
3.93,-5e-05,-4.77,,,,,,,
3.96,-2e-05,-1.44,,,,,,,
3.98,-0.0,1.82,,,,,,,
3.99,0.0,2.18,,,,,,,
4.02,3e-05,5.94,,,,,,,
4.05,5e-05,9.54,,,,,,,
4.07,8e-05,12.56,,,,,,,
4.08,8e-05,13.97,,,,,,,
4.11,0.0001,16.29,,,,,,,
4.14,0.00013,19.47,,,,,,,
4.17,0.00015,22.95,,,,,,,
4.18,0.00016,24.4,,,,,,,
4.2,0.00018,26.59,,,,,,,
4.23,0.0002,30.0,,,,,,,
4.26,0.00023,33.51,,,,,,,
4.28,0.00025,36.16,,,,,,,
4.29,0.00025,36.79,,,,,,,
4.32,0.00028,40.5,,,,,,,
4.35,0.0003,44.0,,,,,,,
4.37,0.00033,47.48,,,,,,,
4.38,0.00034,48.69,,,,,,,
4.4,0.00035,51.26,,,,,,,
4.43,0.00038,54.8,,,,,,,
4.45,0.0004,58.15,,,,,,,
4.48,0.00043,61.8,,,,,,,
4.48,0.00043,62.4,,,,,,,
4.5,0.00045,64.92,,,,,,,
4.52,0.00048,68.62,,,,,,,
4.54,0.00051,71.8,,,,,,,
4.57,0.00053,75.26,,,,,,,
4.58,0.00055,77.89,,,,,,,
4.59,0.00056,78.64,,,,,,,
4.61,0.00058,82.01,,,,,,,
4.64,0.00061,85.44,,,,,,,
4.66,0.00063,88.95,,,,,,,
4.68,0.00065,91.48,,,,,,,
4.69,0.00066,92.19,,,,,,,
4.71,0.00068,95.65,,,,,,,
4.73,0.00071,98.04,,,,,,,
4.76,0.00073,100.56,,,,,,,
4.78,0.00075,103.35,,,,,,,
4.79,0.00076,104.1,,,,,,,
4.82,0.00078,107.79,,,,,,,
4.84,0.00081,110.73,,,,,,,
4.87,0.00083,114.3,,,,,,,
4.88,0.00084,115.64,,,,,,,
4.9,0.00086,117.59,,,,,,,
4.92,0.00088,120.62,,,,,,,
4.95,0.00091,123.81,,,,,,,
4.97,0.00094,126.62,,,,,,,
4.98,0.00094,127.65,,,,,,,
5.0,0.00096,129.54,,,,,,,
5.02,0.00099,132.57,,,,,,,
5.05,0.00101,135.48,,,,,,,
5.08,0.00103,137.17,,,,,,,
5.09,0.00104,137.0,,,,,,,
5.17,0.00101,131.04,,,,,,,
5.18,0.00101,129.92,,,,,,,
5.2,0.00099,126.59,,,,,,,
5.23,0.00096,122.5,,,,,,,
5.26,0.00094,118.5,,,,,,,
5.28,0.00092,116.08,,,,,,,
5.29,0.00091,114.53,,,,,,,
5.32,0.00088,110.69,,,,,,,
5.34,0.00086,107.24,,,,,,,
5.38,0.00083,102.98,,,,,,,
5.38,0.00083,102.77,,,,,,,
5.41,0.00081,98.86,,,,,,,
5.43,0.00078,95.09,,,,,,,
5.46,0.00076,91.54,,,,,,,
5.48,0.00074,89.07,,,,,,,
5.49,0.00073,87.66,,,,,,,
5.51,0.00071,84.87,,,,,,,
5.53,0.00068,81.76,,,,,,,
5.56,0.00066,78.11,,,,,,,
5.58,0.00065,76.15,,,,,,,
5.59,0.00063,74.3,,,,,,,
5.62,0.00061,70.62,,,,,,,
5.65,0.00058,67.16,,,,,,,
5.68,0.00056,63.46,,,,,,,
5.71,0.00053,59.92,,,,,,,
5.73,0.00051,56.47,,,,,,,
5.76,0.00048,53.1,,,,,,,
5.78,0.00046,50.65,,,,,,,
5.79,0.00046,49.69,,,,,,,
5.81,0.00043,46.22,,,,,,,
5.84,0.00041,42.79,,,,,,,
5.87,0.00038,39.18,,,,,,,
5.88,0.00037,37.91,,,,,,,
5.89,0.00035,35.31,,,,,,,
5.92,0.00033,31.38,,,,,,,
5.95,0.0003,27.97,,,,,,,
5.98,0.00028,24.32,,,,,,,
5.98,0.00028,24.16,,,,,,,
6.0,0.00025,20.78,,,,,,,
6.03,0.00023,17.19,,,,,,,
6.06,0.0002,13.81,,,,,,,
6.08,0.00019,12.08,,,,,,,
6.1,0.00018,10.24,,,,,,,
6.13,0.00015,6.86,,,,,,,
6.16,0.00013,3.27,,,,,,,
6.18,0.00012,1.97,,,,,,,
6.2,0.0001,-0.37,,,,,,,
6.22,8e-05,-3.75,,,,,,,
6.25,5e-05,-6.84,,,,,,,
6.28,3e-05,-10.25,,,,,,,
6.28,3e-05,-10.73,,,,,,,
6.31,0.0,-14.19,,,,,,,
6.33,-2e-05,-17.39,,,,,,,
6.36,-5e-05,-20.9,,,,,,,
6.38,-7e-05,-23.19,,,,,,,
6.38,-7e-05,-24.18,,,,,,,
6.41,-0.0001,-27.7,,,,,,,
6.44,-0.00012,-31.38,,,,,,,
6.46,-0.00015,-34.86,,,,,,,
6.47,-0.00017,-37.47,,,,,,,
6.48,-0.00018,-38.24,,,,,,,
6.5,-0.0002,-42.28,,,,,,,
6.52,-0.00023,-45.27,,,,,,,
6.55,-0.00025,-49.17,,,,,,,
6.57,-0.00028,-52.71,,,,,,,
6.6,-0.0003,-56.03,,,,,,,
6.62,-0.00033,-59.65,,,,,,,
6.65,-0.00035,-63.02,,,,,,,
6.67,-0.00038,-66.62,,,,,,,
6.67,-0.00038,-66.85,,,,,,,
6.7,-0.0004,-70.06,,,,,,,
6.72,-0.00043,-73.53,,,,,,,
6.74,-0.00045,-76.6,,,,,,,
6.77,-0.00048,-80.13,,,,,,,
6.77,-0.00048,-80.46,,,,,,,
6.8,-0.0005,-83.17,,,,,,,
6.82,-0.00053,-86.31,,,,,,,
6.84,-0.00055,-89.53,,,,,,,
6.86,-0.00058,-91.92,,,,,,,
6.87,-0.00059,-92.92,,,,,,,
6.89,-0.00061,-94.45,,,,,,,
6.92,-0.00063,-97.56,,,,,,,
6.94,-0.00066,-100.5,,,,,,,
6.97,-0.00068,-103.4,,,,,,,
6.97,-0.00068,-103.5,,,,,,,
7.0,-0.00071,-106.7,,,,,,,
7.03,-0.00073,-109.8,,,,,,,
7.06,-0.00076,-113.3,,,,,,,
7.07,-0.00077,-115.1,,,,,,,
7.08,-0.00078,-116.4,,,,,,,
7.11,-0.00081,-119.3,,,,,,,
7.13,-0.00083,-122.4,,,,,,,
7.16,-0.00086,-125.5,,,,,,,
7.17,-0.00087,-127.1,,,,,,,
7.18,-0.00088,-128.5,,,,,,,
7.22,-0.00091,-131.7,,,,,,,
7.24,-0.00093,-135.1,,,,,,,
7.27,-0.00096,-137.8,,,,,,,
7.27,-0.00096,-137.9,,,,,,,
7.37,-0.00094,-133.2,,,,,,,
7.38,-0.00093,-131.6,,,,,,,
7.42,-0.00091,-127.4,,,,,,,
7.44,-0.00088,-123.7,,,,,,,
7.47,-0.00086,-120.4,,,,,,,
7.47,-0.00086,-119.6,,,,,,,
7.5,-0.00083,-116.3,,,,,,,
7.53,-0.00081,-112.2,,,,,,,
7.56,-0.00078,-108.6,,,,,,,
7.57,-0.00077,-106.8,,,,,,,
7.58,-0.00076,-105.0,,,,,,,
7.62,-0.00073,-101.1,,,,,,,
7.64,-0.00071,-97.24,,,,,,,
7.67,-0.00068,-94.01,,,,,,,
7.67,-0.00068,-93.9,,,,,,,
7.7,-0.00066,-90.22,,,,,,,
7.73,-0.00063,-86.42,,,,,,,
7.75,-0.00061,-83.08,,,,,,,
7.77,-0.00059,-80.85,,,,,,,
7.77,-0.00058,-80.46,,,,,,,
7.8,-0.00056,-77.54,,,,,,,
7.83,-0.00053,-73.47,,,,,,,
7.85,-0.00051,-70.08,,,,,,,
7.87,-0.00049,-68.09,,,,,,,
7.88,-0.00048,-66.58,,,,,,,
7.91,-0.00045,-62.88,,,,,,,
7.94,-0.00043,-59.1,,,,,,,
7.97,-0.0004,-55.47,,,,,,,
7.97,-0.0004,-55.36,,,,,,,
8.0,-0.00038,-52.02,,,,,,,
8.02,-0.00035,-48.1,,,,,,,
8.05,-0.00033,-44.61,,,,,,,
8.07,-0.00031,-42.41,,,,,,,
8.08,-0.0003,-40.91,,,,,,,
8.11,-0.00028,-37.38,,,,,,,
8.14,-0.00025,-33.65,,,,,,,
8.16,-0.00023,-29.96,,,,,,,
8.17,-0.00022,-29.29,,,,,,,
8.19,-0.0002,-26.48,,,,,,,
8.22,-0.00018,-22.91,,,,,,,
8.25,-0.00015,-19.23,,,,,,,
8.27,-0.00013,-16.39,,,,,,,
8.27,-0.00013,-15.87,,,,,,,
8.3,-0.0001,-12.24,,,,,,,
8.33,-8e-05,-8.57,,,,,,,
18.38,-5e-05,7.02,,,,,,,
18.41,-3e-05,10.18,,,,,,,
18.43,-1e-05,12.06,,,,,,,
18.44,-0.0,13.63,,,,,,,
18.48,2e-05,17.01,,,,,,,
18.51,5e-05,20.31,,,,,,,
18.53,6e-05,21.85,,,,,,,
18.54,7e-05,23.41,,,,,,,
18.57,0.0001,26.67,,,,,,,
18.6,0.00012,29.75,,,,,,,
18.63,0.00015,33.23,,,,,,,
18.63,0.00015,33.31,,,,,,,
18.66,0.00017,36.29,,,,,,,
18.69,0.0002,39.77,,,,,,,
18.71,0.00022,42.99,,,,,,,
18.73,0.00024,44.61,,,,,,,
18.74,0.00025,46.27,,,,,,,
18.77,0.00027,49.39,,,,,,,
18.8,0.0003,52.83,,,,,,,
18.82,0.00032,56.13,,,,,,,
18.83,0.00033,56.47,,,,,,,
18.85,0.00035,59.38,,,,,,,
18.87,0.00038,62.97,,,,,,,
18.89,0.0004,66.32,,,,,,,
18.92,0.00043,69.57,,,,,,,
18.93,0.00044,71.27,,,,,,,
18.94,0.00045,72.71,,,,,,,
18.96,0.00048,75.89,,,,,,,
18.98,0.0005,78.9,,,,,,,
19.0,0.00053,82.23,,,,,,,
19.03,0.00055,84.85,,,,,,,
19.03,0.00055,85.36,,,,,,,
19.06,0.00058,88.56,,,,,,,
19.08,0.0006,91.62,,,,,,,
19.11,0.00063,94.72,,,,,,,
19.13,0.00064,96.66,,,,,,,
19.13,0.00065,97.77,,,,,,,
19.16,0.00068,100.88,,,,,,,
19.18,0.0007,103.41,,,,,,,
19.2,0.00073,105.62,,,,,,,
19.22,0.00075,107.95,,,,,,,
19.23,0.00075,108.45,,,,,,,
19.26,0.00078,111.39,,,,,,,
19.29,0.00081,114.45,,,,,,,
19.31,0.00083,117.18,,,,,,,
19.32,0.00084,118.27,,,,,,,
19.34,0.00086,120.3,,,,,,,
19.37,0.00088,123.04,,,,,,,
19.4,0.00091,126.06,,,,,,,
19.42,0.00093,129.08,,,,,,,
19.42,0.00093,129.49,,,,,,,
19.45,0.00096,131.92,,,,,,,
19.47,0.00098,134.79,,,,,,,
19.5,0.00101,137.48,,,,,,,
19.52,0.00103,140.36,,,,,,,
19.52,0.00103,140.41,,,,,,,
19.55,0.00106,143.11,,,,,,,
19.57,0.00108,145.94,,,,,,,
19.6,0.00111,148.49,,,,,,,
19.62,0.00113,151.17,,,,,,,
19.62,0.00113,151.31,,,,,,,
19.65,0.00116,153.49,,,,,,,
19.67,0.00118,155.86,,,,,,,
19.69,0.00121,158.14,,,,,,,
19.72,0.00124,160.46,,,,,,,
19.72,0.00124,160.65,,,,,,,
19.75,0.00126,162.64,,,,,,,
19.77,0.00129,164.87,,,,,,,
19.79,0.00131,166.04,,,,,,,
19.82,0.00133,165.55,,,,,,,
19.91,0.00129,154.03,,,,,,,
19.92,0.00128,152.62,,,,,,,
19.94,0.00126,149.23,,,,,,,
19.97,0.00124,144.86,,,,,,,
20.0,0.00121,140.22,,,,,,,
20.02,0.00119,136.98,,,,,,,
20.03,0.00119,136.03,,,,,,,
20.06,0.00116,131.65,,,,,,,
20.09,0.00114,127.3,,,,,,,
20.11,0.00111,123.31,,,,,,,
20.12,0.0011,121.83,,,,,,,
20.14,0.00108,119.01,,,,,,,
20.16,0.00106,115.16,,,,,,,
20.19,0.00103,111.13,,,,,,,
20.22,0.00101,107.36,,,,,,,
20.22,0.001,106.81,,,,,,,
20.24,0.00098,103.72,,,,,,,
20.27,0.00096,100.0,,,,,,,
20.3,0.00093,96.03,,,,,,,
20.32,0.00091,92.86,,,,,,,
20.32,0.00091,92.52,,,,,,,
20.35,0.00088,88.94,,,,,,,
20.37,0.00086,85.13,,,,,,,
20.4,0.00083,81.6,,,,,,,
20.42,0.00081,79.03,,,,,,,
20.43,0.00081,78.17,,,,,,,
20.45,0.00078,74.44,,,,,,,
20.48,0.00076,70.99,,,,,,,
20.51,0.00073,67.39,,,,,,,
20.52,0.00072,66.01,,,,,,,
20.53,0.00071,64.59,,,,,,,
20.55,0.00068,61.72,,,,,,,
20.58,0.00066,58.09,,,,,,,
20.61,0.00063,54.59,,,,,,,
20.62,0.00063,53.56,,,,,,,
20.64,0.00061,51.24,,,,,,,
20.67,0.00058,47.22,,,,,,,
20.69,0.00056,43.89,,,,,,,
20.72,0.00053,40.56,,,,,,,
20.72,0.00053,40.27,,,,,,,
20.75,0.0005,36.66,,,,,,,
20.77,0.00048,33.33,,,,,,,
20.8,0.00045,29.72,,,,,,,
20.82,0.00044,27.9,,,,,,,
20.83,0.00043,26.32,,,,,,,
20.86,0.0004,22.85,,,,,,,
20.88,0.00038,19.32,,,,,,,
20.91,0.00035,15.9,,,,,,,
20.92,0.00035,14.96,,,,,,,
20.94,0.00033,12.44,,,,,,,
20.97,0.0003,9.2,,,,,,,
21.0,0.00028,6.16,,,,,,,
21.02,0.00027,4.83,,,,,,,
21.04,0.00025,2.4,,,,,,,
21.07,0.00023,-0.93,,,,,,,
21.1,0.0002,-4.37,,,,,,,
21.12,0.00018,-6.85,,,,,,,
21.12,0.00018,-7.49,,,,,,,
21.15,0.00015,-11.05,,,,,,,
21.18,0.00013,-14.21,,,,,,,
21.21,0.0001,-17.44,,,,,,,
21.22,9e-05,-18.57,,,,,,,
21.24,8e-05,-21.11,,,,,,,
21.26,5e-05,-24.19,,,,,,,
21.29,3e-05,-27.65,,,,,,,
21.31,0.0,-30.86,,,,,,,
21.32,-0.0,-31.37,,,,,,,
21.34,-3e-05,-34.59,,,,,,,
21.36,-5e-05,-38.05,,,,,,,
21.38,-8e-05,-41.4,,,,,,,
21.4,-0.0001,-44.85,,,,,,,
21.42,-0.00012,-47.06,,,,,,,
21.42,-0.00013,-47.9,,,,,,,
21.45,-0.00015,-51.23,,,,,,,
21.47,-0.00018,-54.23,,,,,,,
21.49,-0.0002,-57.41,,,,,,,
21.52,-0.00022,-59.93,,,,,,,
21.52,-0.00023,-60.52,,,,,,,
21.55,-0.00025,-63.81,,,,,,,
21.57,-0.00028,-66.85,,,,,,,
21.6,-0.0003,-69.83,,,,,,,
21.62,-0.00032,-71.76,,,,,,,
21.62,-0.00033,-72.94,,,,,,,
21.65,-0.00035,-76.15,,,,,,,
21.68,-0.00038,-79.11,,,,,,,
21.7,-0.00041,-82.15,,,,,,,
21.71,-0.00042,-83.44,,,,,,,
21.73,-0.00043,-85.03,,,,,,,
21.76,-0.00046,-88.17,,,,,,,
21.78,-0.00048,-91.18,,,,,,,
21.81,-0.00051,-94.0,,,,,,,
21.81,-0.00051,-94.89,,,,,,,
21.83,-0.00053,-96.93,,,,,,,
21.85,-0.00056,-99.76,,,,,,,
21.87,-0.00058,-102.2,,,,,,,
21.9,-0.00061,-104.3,,,,,,,
21.91,-0.00062,-106.0,,,,,,,
21.92,-0.00063,-107.0,,,,,,,
21.95,-0.00066,-109.8,,,,,,,
21.98,-0.00068,-112.8,,,,,,,
22.01,-0.00071,-115.4,,,,,,,
22.01,-0.00071,-116.0,,,,,,,
22.04,-0.00073,-118.3,,,,,,,
22.06,-0.00076,-120.9,,,,,,,
22.09,-0.00078,-124.1,,,,,,,
22.11,-0.00081,-126.7,,,,,,,
22.11,-0.00081,-126.9,,,,,,,
22.14,-0.00083,-129.5,,,,,,,
22.16,-0.00086,-132.2,,,,,,,
22.19,-0.00089,-134.5,,,,,,,
22.21,-0.00091,-136.8,,,,,,,
22.22,-0.00091,-137.3,,,,,,,
22.24,-0.00094,-139.9,,,,,,,
22.27,-0.00096,-142.5,,,,,,,
22.3,-0.00099,-145.0,,,,,,,
22.31,-0.001,-146.7,,,,,,,
22.32,-0.00101,-147.6,,,,,,,
22.34,-0.00104,-150.0,,,,,,,
22.37,-0.00106,-152.5,,,,,,,
22.39,-0.00109,-155.0,,,,,,,
22.41,-0.00111,-156.8,,,,,,,
22.42,-0.00111,-157.3,,,,,,,
22.44,-0.00114,-159.4,,,,,,,
22.47,-0.00116,-161.5,,,,,,,
22.49,-0.00119,-163.8,,,,,,,
22.51,-0.00121,-165.5,,,,,,,
22.52,-0.00121,-165.8,,,,,,,
22.53,-0.00124,-166.2,,,,,,,
22.58,-0.00127,-168.2,,,,,,,
22.59,-0.00129,-168.3,,,,,,,
22.6,-0.00132,-166.2,,,,,,,
22.6,-0.00134,-166.2,,,,,,,
22.6,-0.00137,-166.1,,,,,,,
22.6,-0.0014,-166.0,,,,,,,
22.61,-0.00143,-165.7,,,,,,,
22.61,-0.00142,-165.2,,,,,,,
22.63,-0.0014,-159.6,,,,,,,
22.65,-0.00137,-154.8,,,,,,,
22.67,-0.00135,-151.1,,,,,,,
22.68,-0.00132,-146.7,,,,,,,
22.7,-0.0013,-142.5,,,,,,,
22.71,-0.00129,-141.1,,,,,,,
22.73,-0.00127,-137.8,,,,,,,
22.75,-0.00125,-133.8,,,,,,,
22.78,-0.00122,-129.5,,,,,,,
22.8,-0.0012,-125.3,,,,,,,
22.81,-0.00119,-124.2,,,,,,,
22.83,-0.00117,-121.6,,,,,,,
22.86,-0.00115,-117.5,,,,,,,
22.88,-0.00112,-113.2,,,,,,,
22.91,-0.0011,-109.3,,,,,,,
22.91,-0.0011,-109.0,,,,,,,
22.94,-0.00107,-105.3,,,,,,,
22.96,-0.00104,-101.4,,,,,,,
22.99,-0.00102,-97.71,,,,,,,
23.01,-0.001,-94.79,,,,,,,
23.02,-0.00099,-93.96,,,,,,,
23.04,-0.00097,-90.32,,,,,,,
23.07,-0.00094,-86.62,,,,,,,
23.1,-0.00092,-82.94,,,,,,,
23.11,-0.00091,-81.02,,,,,,,
23.12,-0.00089,-79.26,,,,,,,
23.15,-0.00087,-75.83,,,,,,,
23.17,-0.00084,-72.1,,,,,,,
23.2,-0.00082,-68.56,,,,,,,
23.21,-0.00081,-67.64,,,,,,,
23.23,-0.00079,-65.01,,,,,,,
23.25,-0.00077,-61.22,,,,,,,
23.28,-0.00074,-57.66,,,,,,,
23.31,-0.00072,-54.13,,,,,,,
23.31,-0.00072,-54.0,,,,,,,
23.34,-0.00069,-50.75,,,,,,,
23.36,-0.00067,-47.0,,,,,,,
23.39,-0.00064,-43.57,,,,,,,
23.41,-0.00062,-41.18,,,,,,,
23.42,-0.00062,-40.21,,,,,,,
23.44,-0.00059,-36.94,,,,,,,
23.46,-0.00057,-34.36,,,,,,,
23.49,-0.00054,-31.46,,,,,,,
23.51,-0.00052,-29.22,,,,,,,
23.52,-0.00052,-27.85,,,,,,,
23.55,-0.00049,-24.44,,,,,,,
23.57,-0.00046,-21.05,,,,,,,
23.6,-0.00044,-17.41,,,,,,,
23.61,-0.00043,-16.7,,,,,,,
23.63,-0.00041,-14.13,,,,,,,
23.65,-0.00039,-10.87,,,,,,,
23.68,-0.00036,-7.2,,,,,,,
23.71,-0.00034,-3.98,,,,,,,
23.71,-0.00034,-3.78,,,,,,,
23.73,-0.00031,-0.52,,,,,,,
23.76,-0.00029,2.89,,,,,,,
23.79,-0.00026,6.47,,,,,,,
23.81,-0.00025,8.8,,,,,,,
23.81,-0.00024,9.69,,,,,,,
23.84,-0.00021,13.04,,,,,,,
23.87,-0.00019,16.19,,,,,,,
23.91,-0.00016,19.38,,,,,,,
23.94,-0.00014,22.7,,,,,,,
47.71,-0.0001,34.49,,,,,,,
47.71,-0.0001,34.65,,,,,,,
47.74,-7e-05,37.63,,,,,,,
47.77,-5e-05,40.53,,,,,,,
47.79,-2e-05,43.25,,,,,,,
47.81,-1e-05,45.25,,,,,,,
47.82,0.0,46.32,,,,,,,
47.85,3e-05,49.26,,,,,,,
47.87,5e-05,52.08,,,,,,,
47.9,8e-05,54.86,,,,,,,
47.91,9e-05,56.63,,,,,,,
47.92,0.0001,57.87,,,,,,,
47.94,0.00013,60.74,,,,,,,
47.97,0.00015,63.65,,,,,,,
47.99,0.00018,66.54,,,,,,,
48.01,0.0002,69.46,,,,,,,
48.01,0.00021,69.65,,,,,,,
48.03,0.00023,72.31,,,,,,,
48.05,0.00025,74.8,,,,,,,
48.08,0.00028,77.62,,,,,,,
48.11,0.0003,80.14,,,,,,,
48.11,0.00031,80.77,,,,,,,
48.13,0.00033,82.54,,,,,,,
48.16,0.00035,85.16,,,,,,,
48.18,0.00038,87.66,,,,,,,
48.21,0.00041,90.05,,,,,,,
48.21,0.00041,90.55,,,,,,,
48.23,0.00043,92.56,,,,,,,
48.26,0.00046,94.86,,,,,,,
48.28,0.00048,97.41,,,,,,,
48.31,0.00051,99.66,,,,,,,
48.31,0.00051,99.96,,,,,,,
48.33,0.00053,102.19,,,,,,,
48.36,0.00056,104.38,,,,,,,
48.38,0.00058,106.75,,,,,,,
48.41,0.00061,108.86,,,,,,,
48.44,0.00063,111.21,,,,,,,
48.46,0.00066,113.36,,,,,,,
48.49,0.00068,115.61,,,,,,,
48.51,0.00071,117.38,,,,,,,
48.53,0.00073,118.88,,,,,,,
48.56,0.00076,120.82,,,,,,,
48.59,0.00079,122.93,,,,,,,
48.61,0.0008,124.59,,,,,,,
48.62,0.00081,125.19,,,,,,,
48.64,0.00084,127.28,,,,,,,
48.67,0.00086,129.26,,,,,,,
48.69,0.00089,131.09,,,,,,,
48.71,0.0009,132.69,,,,,,,
48.72,0.00091,133.35,,,,,,,
48.74,0.00094,135.26,,,,,,,
48.77,0.00096,137.09,,,,,,,
48.79,0.00099,138.9,,,,,,,
48.81,0.001,140.08,,,,,,,
48.82,0.00101,140.76,,,,,,,
48.84,0.00104,142.6,,,,,,,
48.87,0.00106,144.39,,,,,,,
48.89,0.00109,146.09,,,,,,,
48.91,0.0011,147.27,,,,,,,
48.92,0.00111,147.89,,,,,,,
48.94,0.00114,149.56,,,,,,,
48.96,0.00116,151.36,,,,,,,
48.99,0.00119,152.86,,,,,,,
49.01,0.00121,154.21,,,,,,,
49.01,0.00121,154.44,,,,,,,
49.03,0.00124,155.69,,,,,,,
49.06,0.00127,157.04,,,,,,,
49.08,0.00129,158.46,,,,,,,
49.11,0.00132,159.57,,,,,,,
49.11,0.00132,159.59,,,,,,,
49.13,0.00134,160.79,,,,,,,
49.15,0.00137,161.71,,,,,,,
49.18,0.00139,162.61,,,,,,,
49.2,0.00142,163.36,,,,,,,
49.21,0.00142,163.47,,,,,,,
49.24,0.00144,161.99,,,,,,,
49.31,0.00143,152.1,,,,,,,
49.32,0.00142,149.03,,,,,,,
49.35,0.00139,143.15,,,,,,,
49.38,0.00137,137.91,,,,,,,
49.4,0.00134,133.06,,,,,,,
49.41,0.00134,132.56,,,,,,,
49.43,0.00132,128.44,,,,,,,
49.45,0.00129,123.79,,,,,,,
49.48,0.00127,119.19,,,,,,,
49.51,0.00124,114.99,,,,,,,
49.51,0.00124,114.91,,,,,,,
49.53,0.00121,110.68,,,,,,,
49.55,0.00119,106.87,,,,,,,
49.58,0.00116,102.75,,,,,,,
49.6,0.00114,98.97,,,,,,,
49.61,0.00114,98.78,,,,,,,
49.63,0.00111,94.93,,,,,,,
49.66,0.00109,90.79,,,,,,,
49.69,0.00106,86.94,,,,,,,
49.71,0.00104,84.22,,,,,,,
49.71,0.00104,83.19,,,,,,,
49.74,0.00101,79.38,,,,,,,
49.76,0.00099,75.97,,,,,,,
49.79,0.00096,72.37,,,,,,,
49.8,0.00095,70.32,,,,,,,
49.82,0.00094,68.66,,,,,,,
49.84,0.00091,65.07,,,,,,,
49.87,0.00089,61.5,,,,,,,
49.89,0.00086,58.22,,,,,,,
49.9,0.00085,56.8,,,,,,,
49.92,0.00084,54.89,,,,,,,
49.95,0.00081,51.23,,,,,,,
49.97,0.00079,47.82,,,,,,,
50.0,0.00076,44.28,,,,,,,
50.0,0.00076,44.06,,,,,,,
50.03,0.00074,40.64,,,,,,,
50.05,0.00071,37.92,,,,,,,
50.07,0.00069,35.12,,,,,,,
50.1,0.00066,31.83,,,,,,,
50.1,0.00065,31.07,,,,,,,
50.13,0.00063,28.81,,,,,,,
50.16,0.00061,24.99,,,,,,,
50.18,0.00058,21.99,,,,,,,
50.2,0.00056,19.45,,,,,,,
50.21,0.00056,18.76,,,,,,,
50.24,0.00053,15.15,,,,,,,
50.27,0.00051,12.02,,,,,,,
50.3,0.00048,9.16,,,,,,,
50.3,0.00048,8.64,,,,,,,
50.34,0.00046,5.8,,,,,,,
50.37,0.00043,2.53,,,,,,,
50.4,0.00041,-0.86,,,,,,,
50.4,0.0004,-1.45,,,,,,,
50.43,0.00038,-4.06,,,,,,,
50.46,0.00036,-7.34,,,,,,,
50.48,0.00033,-10.56,,,,,,,
50.5,0.00031,-13.09,,,,,,,
50.51,0.00031,-13.71,,,,,,,
50.54,0.00028,-16.49,,,,,,,
50.57,0.00026,-19.87,,,,,,,
50.59,0.00023,-22.81,,,,,,,
50.6,0.00022,-24.55,,,,,,,
50.62,0.00021,-26.01,,,,,,,
50.64,0.00018,-29.32,,,,,,,
50.67,0.00016,-32.16,,,,,,,
50.69,0.00013,-35.28,,,,,,,
50.7,0.00011,-37.49,,,,,,,
50.71,0.0001,-38.68,,,,,,,
50.73,8e-05,-41.65,,,,,,,
50.75,5e-05,-44.52,,,,,,,
50.77,3e-05,-47.38,,,,,,,
50.79,0.0,-50.48,,,,,,,
50.8,-0.0,-51.25,,,,,,,
50.82,-2e-05,-53.24,,,,,,,
50.84,-5e-05,-55.92,,,,,,,
50.87,-7e-05,-58.65,,,,,,,
50.89,-0.0001,-61.1,,,,,,,
50.9,-0.0001,-62.0,,,,,,,
50.92,-0.00012,-63.78,,,,,,,
50.94,-0.00015,-66.46,,,,,,,
50.97,-0.00017,-68.95,,,,,,,
50.99,-0.0002,-71.51,,,,,,,
51.0,-0.0002,-72.1,,,,,,,
51.02,-0.00022,-74.01,,,,,,,
51.05,-0.00025,-76.52,,,,,,,
51.07,-0.00027,-79.23,,,,,,,
51.09,-0.0003,-81.74,,,,,,,
51.1,-0.0003,-82.23,,,,,,,
51.12,-0.00032,-84.24,,,,,,,
51.15,-0.00035,-86.69,,,,,,,
51.17,-0.00037,-89.11,,,,,,,
51.2,-0.0004,-91.63,,,,,,,
51.22,-0.00043,-94.21,,,,,,,
51.25,-0.00045,-96.61,,,,,,,
51.27,-0.00048,-99.08,,,,,,,
51.3,-0.0005,-101.3,,,,,,,
51.3,-0.0005,-101.5,,,,,,,
51.32,-0.00053,-103.7,,,,,,,
51.35,-0.00055,-105.9,,,,,,,
51.37,-0.00058,-107.8,,,,,,,
51.39,-0.0006,-109.5,,,,,,,
51.4,-0.00061,-109.7,,,,,,,
51.42,-0.00063,-111.2,,,,,,,
51.45,-0.00065,-113.5,,,,,,,
51.48,-0.00068,-115.7,,,,,,,
51.5,-0.0007,-117.4,,,,,,,
51.5,-0.0007,-117.7,,,,,,,
51.53,-0.00073,-119.8,,,,,,,
51.55,-0.00075,-122.2,,,,,,,
51.58,-0.00078,-124.4,,,,,,,
51.6,-0.0008,-126.1,,,,,,,
51.6,-0.0008,-126.6,,,,,,,
51.63,-0.00083,-128.7,,,,,,,
51.66,-0.00085,-130.8,,,,,,,
51.68,-0.00088,-132.8,,,,,,,
51.7,-0.0009,-134.2,,,,,,,
51.71,-0.0009,-135.0,,,,,,,
51.73,-0.00093,-137.0,,,,,,,
51.76,-0.00096,-139.2,,,,,,,
51.78,-0.00098,-141.1,,,,,,,
51.8,-0.001,-142.2,,,,,,,
51.81,-0.00101,-142.9,,,,,,,
51.84,-0.00103,-144.6,,,,,,,
51.86,-0.00106,-146.6,,,,,,,
51.89,-0.00108,-148.6,,,,,,,
51.9,-0.00109,-149.2,,,,,,,
51.91,-0.00111,-150.6,,,,,,,
51.94,-0.00113,-152.6,,,,,,,
51.96,-0.00116,-154.4,,,,,,,
51.99,-0.00118,-155.9,,,,,,,
52.0,-0.00119,-156.3,,,,,,,
52.01,-0.00121,-157.4,,,,,,,
52.04,-0.00123,-159.1,,,,,,,
52.06,-0.00126,-160.5,,,,,,,
52.09,-0.00128,-161.6,,,,,,,
52.1,-0.00129,-162.2,,,,,,,
52.11,-0.00131,-163.1,,,,,,,
52.13,-0.00133,-164.3,,,,,,,
52.16,-0.00136,-165.6,,,,,,,
52.18,-0.00138,-166.5,,,,,,,
52.2,-0.0014,-167.3,,,,,,,
52.2,-0.00141,-167.7,,,,,,,
52.23,-0.00144,-167.2,,,,,,,
52.3,-0.00143,-159.2,,,,,,,
52.32,-0.00141,-154.0,,,,,,,
52.35,-0.00138,-147.9,,,,,,,
52.38,-0.00136,-142.7,,,,,,,
52.39,-0.00134,-139.4,,,,,,,
52.4,-0.00133,-137.8,,,,,,,
52.43,-0.00131,-132.9,,,,,,,
52.46,-0.00128,-128.2,,,,,,,
52.48,-0.00126,-123.9,,,,,,,
52.49,-0.00124,-121.7,,,,,,,
52.51,-0.00123,-119.5,,,,,,,
52.53,-0.00121,-115.8,,,,,,,
52.56,-0.00118,-111.6,,,,,,,
52.58,-0.00116,-107.6,,,,,,,
52.59,-0.00114,-106.0,,,,,,,
52.61,-0.00113,-103.8,,,,,,,
52.64,-0.00111,-99.52,,,,,,,
52.66,-0.00108,-96.02,,,,,,,
52.69,-0.00106,-92.23,,,,,,,
52.69,-0.00105,-91.26,,,,,,,
52.71,-0.00103,-88.43,,,,,,,
52.74,-0.00101,-84.35,,,,,,,
52.77,-0.00098,-80.38,,,,,,,
52.79,-0.00096,-77.31,,,,,,,
52.8,-0.00096,-76.88,,,,,,,
52.82,-0.00093,-72.77,,,,,,,
52.85,-0.0009,-68.89,,,,,,,
52.88,-0.00088,-64.94,,,,,,,
52.89,-0.00087,-63.21,,,,,,,
52.91,-0.00085,-61.07,,,,,,,
52.93,-0.00083,-57.41,,,,,,,
52.96,-0.0008,-53.67,,,,,,,
52.99,-0.00078,-49.89,,,,,,,
52.99,-0.00077,-49.13,,,,,,,
53.01,-0.00075,-46.31,,,,,,,
53.04,-0.00073,-42.72,,,,,,,
53.07,-0.0007,-39.1,,,,,,,
53.09,-0.00068,-35.73,,,,,,,
53.09,-0.00068,-35.53,,,,,,,
53.12,-0.00065,-32.35,,,,,,,
53.14,-0.00063,-29.14,,,,,,,
53.17,-0.0006,-26.01,,,,,,,
53.19,-0.00058,-23.4,,,,,,,
53.19,-0.00057,-22.83,,,,,,,
53.21,-0.00055,-20.96,,,,,,,
53.24,-0.00053,-17.95,,,,,,,
53.27,-0.0005,-14.74,,,,,,,
53.29,-0.00048,-11.86,,,,,,,
53.29,-0.00048,-11.44,,,,,,,
53.32,-0.00045,-8.49,,,,,,,
53.35,-0.00043,-5.01,,,,,,,
53.38,-0.0004,-1.86,,,,,,,
53.39,-0.00039,0.04,,,,,,,
53.4,-0.00037,1.6,,,,,,,
53.43,-0.00035,4.83,,,,,,,
53.46,-0.00032,7.94,,,,,,,
53.48,-0.0003,11.24,,,,,,,
53.49,-0.00029,12.15,,,,,,,
53.51,-0.00027,14.1,,,,,,,
53.54,-0.00025,16.93,,,,,,,
53.57,-0.00022,20.0,,,,,,,
53.59,-0.00021,21.3,,,,,,,
53.61,-0.0002,22.94,,,,,,,
53.64,-0.00017,26.18,,,,,,,
53.67,-0.00015,29.26,,,,,,,
53.69,-0.00013,31.6,,,,,,,
107.75,-0.00012,34.47,,,,,,,
107.78,-9e-05,37.34,,,,,,,
107.78,-9e-05,37.37,,,,,,,
107.8,-7e-05,40.24,,,,,,,
107.83,-4e-05,43.17,,,,,,,
107.86,-2e-05,45.96,,,,,,,
107.88,-0.0,47.86,,,,,,,
107.89,1e-05,48.92,,,,,,,
107.91,3e-05,51.96,,,,,,,
107.94,6e-05,54.79,,,,,,,
107.96,8e-05,57.46,,,,,,,
107.98,0.0001,59.33,,,,,,,
107.98,0.00011,60.15,,,,,,,
108.01,0.00013,63.16,,,,,,,
108.03,0.00016,65.92,,,,,,,
108.05,0.00018,68.72,,,,,,,
108.07,0.00021,71.3,,,,,,,
108.08,0.00021,72.1,,,,,,,
108.09,0.00023,73.93,,,,,,,
108.12,0.00026,76.66,,,,,,,
108.14,0.00028,79.17,,,,,,,
108.17,0.00031,81.76,,,,,,,
108.18,0.00032,82.66,,,,,,,
108.19,0.00033,84.05,,,,,,,
108.22,0.00036,86.63,,,,,,,
108.24,0.00038,89.18,,,,,,,
108.27,0.00041,91.56,,,,,,,
108.28,0.00042,92.21,,,,,,,
108.29,0.00044,93.8,,,,,,,
108.32,0.00046,96.03,,,,,,,
108.34,0.00049,98.35,,,,,,,
108.37,0.00051,100.57,,,,,,,
108.38,0.00052,100.94,,,,,,,
108.39,0.00054,102.67,,,,,,,
108.42,0.00056,104.88,,,,,,,
108.45,0.00059,107.03,,,,,,,
108.47,0.00061,108.98,,,,,,,
108.47,0.00061,109.07,,,,,,,
108.5,0.00064,111.18,,,,,,,
108.53,0.00066,113.2,,,,,,,
108.55,0.00069,115.35,,,,,,,
108.57,0.00071,116.96,,,,,,,
108.57,0.00072,117.24,,,,,,,
108.59,0.00074,118.25,,,,,,,
108.62,0.00076,120.17,,,,,,,
108.65,0.00079,122.16,,,,,,,
108.67,0.00081,124.16,,,,,,,
108.67,0.00081,124.21,,,,,,,
108.7,0.00084,126.22,,,,,,,
108.72,0.00086,128.13,,,,,,,
108.75,0.00089,130.01,,,,,,,
108.77,0.00091,131.58,,,,,,,
108.78,0.00091,132.01,,,,,,,
108.8,0.00094,133.96,,,,,,,
108.83,0.00096,135.87,,,,,,,
108.85,0.00099,137.64,,,,,,,
108.87,0.00101,139.04,,,,,,,
108.88,0.00101,139.51,,,,,,,
108.9,0.00104,141.23,,,,,,,
108.93,0.00107,142.98,,,,,,,
108.95,0.00109,144.76,,,,,,,
108.97,0.00111,146.22,,,,,,,
108.98,0.00112,146.39,,,,,,,
109.0,0.00114,148.0,,,,,,,
109.02,0.00117,149.52,,,,,,,
109.05,0.00119,150.87,,,,,,,
109.07,0.00121,152.16,,,,,,,
109.08,0.00122,152.3,,,,,,,
109.1,0.00124,153.71,,,,,,,
109.12,0.00127,154.88,,,,,,,
109.15,0.00129,156.18,,,,,,,
109.17,0.00132,157.38,,,,,,,
109.17,0.00132,157.58,,,,,,,
109.19,0.00134,158.48,,,,,,,
109.22,0.00137,159.56,,,,,,,
109.24,0.00139,160.41,,,,,,,
109.26,0.00142,161.09,,,,,,,
109.27,0.00143,161.02,,,,,,,
109.3,0.00145,159.14,,,,,,,
109.37,0.00142,147.95,,,,,,,
109.37,0.00142,147.68,,,,,,,
109.4,0.00139,141.66,,,,,,,
109.43,0.00137,136.18,,,,,,,
109.46,0.00134,131.15,,,,,,,
109.47,0.00133,128.62,,,,,,,
109.48,0.00132,126.49,,,,,,,
109.51,0.00129,121.49,,,,,,,
109.53,0.00127,117.24,,,,,,,
109.56,0.00124,112.98,,,,,,,
109.57,0.00123,111.15,,,,,,,
109.58,0.00122,108.82,,,,,,,
109.61,0.00119,104.73,,,,,,,
109.63,0.00117,100.76,,,,,,,
109.66,0.00114,96.71,,,,,,,
109.67,0.00113,95.34,,,,,,,
109.69,0.00112,93.16,,,,,,,
109.71,0.00109,88.96,,,,,,,
109.74,0.00107,85.24,,,,,,,
109.76,0.00104,81.63,,,,,,,
109.77,0.00104,80.8,,,,,,,
109.79,0.00102,77.9,,,,,,,
109.82,0.00099,74.2,,,,,,,
109.84,0.00097,70.63,,,,,,,
109.87,0.00094,67.2,,,,,,,
109.87,0.00094,66.91,,,,,,,
109.89,0.00092,63.57,,,,,,,
109.92,0.00089,60.08,,,,,,,
109.95,0.00086,56.76,,,,,,,
109.97,0.00085,54.05,,,,,,,
109.98,0.00084,52.96,,,,,,,
110.0,0.00081,49.46,,,,,,,
110.03,0.00079,45.85,,,,,,,
110.06,0.00076,42.63,,,,,,,
110.07,0.00075,40.98,,,,,,,
110.08,0.00074,39.02,,,,,,,
110.11,0.00071,36.16,,,,,,,
110.13,0.00069,33.49,,,,,,,
110.16,0.00066,30.19,,,,,,,
110.17,0.00065,28.73,,,,,,,
110.19,0.00064,26.66,,,,,,,
110.21,0.00061,23.24,,,,,,,
110.24,0.00059,19.7,,,,,,,
110.27,0.00056,16.48,,,,,,,
110.27,0.00056,16.42,,,,,,,
110.3,0.00054,13.06,,,,,,,
110.33,0.00051,9.7,,,,,,,
110.36,0.00049,6.58,,,,,,,
110.37,0.00048,6.16,,,,,,,
110.4,0.00046,3.26,,,,,,,
110.43,0.00044,-0.1,,,,,,,
110.46,0.00041,-3.26,,,,,,,
110.47,0.0004,-4.41,,,,,,,
110.48,0.00038,-6.24,,,,,,,
110.51,0.00036,-9.73,,,,,,,
110.54,0.00033,-12.92,,,,,,,
110.56,0.00031,-15.78,,,,,,,
110.57,0.00031,-16.04,,,,,,,
110.59,0.00028,-19.01,,,,,,,
110.62,0.00026,-22.14,,,,,,,
110.64,0.00023,-25.13,,,,,,,
110.67,0.00021,-27.65,,,,,,,
110.67,0.00021,-28.14,,,,,,,
110.7,0.00018,-31.44,,,,,,,
110.72,0.00016,-34.6,,,,,,,
110.74,0.00013,-37.75,,,,,,,
110.76,0.00011,-40.81,,,,,,,
110.77,0.0001,-41.45,,,,,,,
110.78,8e-05,-43.67,,,,,,,
110.8,6e-05,-46.41,,,,,,,
110.83,3e-05,-49.2,,,,,,,
110.85,1e-05,-52.07,,,,,,,
110.87,-1e-05,-53.84,,,,,,,
110.87,-2e-05,-54.87,,,,,,,
110.9,-5e-05,-57.59,,,,,,,
110.93,-7e-05,-60.36,,,,,,,
110.95,-0.0001,-63.04,,,,,,,
110.96,-0.00011,-64.61,,,,,,,
110.97,-0.00012,-65.54,,,,,,,
111.0,-0.00015,-68.1,,,,,,,
111.03,-0.00017,-70.78,,,,,,,
111.05,-0.0002,-73.12,,,,,,,
111.06,-0.00021,-74.45,,,,,,,
111.08,-0.00022,-75.65,,,,,,,
111.1,-0.00025,-78.12,,,,,,,
111.13,-0.00027,-80.61,,,,,,,
111.15,-0.0003,-83.14,,,,,,,
111.16,-0.00031,-84.53,,,,,,,
111.18,-0.00032,-85.59,,,,,,,
111.2,-0.00035,-88.0,,,,,,,
111.23,-0.00037,-90.58,,,,,,,
111.25,-0.0004,-93.05,,,,,,,
111.26,-0.00041,-94.13,,,,,,,
111.28,-0.00042,-95.33,,,,,,,
111.3,-0.00045,-97.48,,,,,,,
111.33,-0.00047,-99.87,,,,,,,
111.35,-0.0005,-102.1,,,,,,,
111.36,-0.00051,-103.0,,,,,,,
111.38,-0.00052,-104.4,,,,,,,
111.4,-0.00055,-106.5,,,,,,,
111.43,-0.00057,-108.4,,,,,,,
111.45,-0.0006,-109.9,,,,,,,
111.46,-0.00062,-111.1,,,,,,,
111.47,-0.00062,-111.9,,,,,,,
111.5,-0.00065,-113.8,,,,,,,
111.53,-0.00068,-115.9,,,,,,,
111.55,-0.0007,-117.9,,,,,,,
111.56,-0.00071,-118.5,,,,,,,
111.58,-0.00073,-120.1,,,,,,,
111.61,-0.00075,-122.2,,,,,,,
111.64,-0.00078,-124.4,,,,,,,
111.66,-0.0008,-126.4,,,,,,,
111.66,-0.0008,-126.6,,,,,,,
111.69,-0.00083,-128.4,,,,,,,
111.71,-0.00085,-130.3,,,,,,,
111.74,-0.00088,-132.3,,,,,,,
111.76,-0.0009,-134.1,,,,,,,
111.76,-0.0009,-134.2,,,,,,,
111.79,-0.00093,-136.1,,,,,,,
111.81,-0.00095,-138.1,,,,,,,
111.84,-0.00098,-139.9,,,,,,,
111.86,-0.001,-141.7,,,,,,,
111.86,-0.001,-141.8,,,,,,,
111.89,-0.00103,-143.5,,,,,,,
111.91,-0.00105,-145.3,,,,,,,
111.94,-0.00108,-147.1,,,,,,,
111.96,-0.0011,-148.5,,,,,,,
111.96,-0.0011,-148.7,,,,,,,
111.99,-0.00113,-150.6,,,,,,,
112.02,-0.00116,-152.1,,,,,,,
112.04,-0.00118,-153.6,,,,,,,
112.06,-0.0012,-155.0,,,,,,,
112.06,-0.00121,-155.2,,,,,,,
112.09,-0.00123,-156.5,,,,,,,
112.11,-0.00126,-157.8,,,,,,,
112.13,-0.00128,-159.1,,,,,,,
112.16,-0.00131,-160.3,,,,,,,
112.18,-0.00133,-161.1,,,,,,,
112.21,-0.00136,-162.1,,,,,,,
112.23,-0.00138,-163.0,,,,,,,
112.26,-0.00141,-163.9,,,,,,,
112.26,-0.00141,-164.0,,,,,,,
112.28,-0.00143,-164.0,,,,,,,
112.36,-0.00143,-154.2,,,,,,,
112.39,-0.00141,-148.7,,,,,,,
112.41,-0.00138,-143.2,,,,,,,
112.44,-0.00136,-138.1,,,,,,,
112.46,-0.00134,-134.5,,,,,,,
112.47,-0.00133,-133.1,,,,,,,
112.49,-0.00131,-128.4,,,,,,,
112.52,-0.00128,-123.6,,,,,,,
112.55,-0.00126,-119.3,,,,,,,
112.56,-0.00124,-117.1,,,,,,,
112.57,-0.00123,-115.1,,,,,,,
112.6,-0.00121,-111.0,,,,,,,
112.62,-0.00118,-106.9,,,,,,,
112.65,-0.00115,-102.6,,,,,,,
112.66,-0.00114,-101.3,,,,,,,
112.67,-0.00113,-99.0,,,,,,,
112.7,-0.0011,-94.73,,,,,,,
112.73,-0.00108,-91.04,,,,,,,
112.75,-0.00105,-86.99,,,,,,,
112.76,-0.00105,-86.39,,,,,,,
112.78,-0.00103,-83.5,,,,,,,
112.81,-0.001,-79.65,,,,,,,
112.83,-0.00098,-75.87,,,,,,,
112.86,-0.00095,-72.23,,,,,,,
112.86,-0.00095,-72.17,,,,,,,
112.88,-0.00093,-68.3,,,,,,,
112.91,-0.0009,-64.87,,,,,,,
112.94,-0.00088,-61.23,,,,,,,
112.96,-0.00086,-58.67,,,,,,,
112.96,-0.00085,-57.88,,,,,,,
112.99,-0.00083,-54.13,,,,,,,
113.02,-0.0008,-50.82,,,,,,,
113.05,-0.00078,-47.06,,,,,,,
113.06,-0.00076,-45.42,,,,,,,
113.07,-0.00075,-43.81,,,,,,,
113.1,-0.00073,-40.16,,,,,,,
113.12,-0.0007,-36.53,,,,,,,
113.15,-0.00068,-33.37,,,,,,,
113.16,-0.00067,-32.4,,,,,,,
113.18,-0.00065,-30.03,,,,,,,
113.2,-0.00063,-26.56,,,,,,,
113.23,-0.0006,-23.34,,,,,,,
113.25,-0.00057,-20.84,,,,,,,
113.26,-0.00057,-20.01,,,,,,,
113.27,-0.00055,-18.13,,,,,,,
113.3,-0.00052,-14.65,,,,,,,
113.33,-0.0005,-11.13,,,,,,,
113.36,-0.00048,-8.46,,,,,,,
113.36,-0.00047,-8.07,,,,,,,
113.39,-0.00045,-4.68,,,,,,,
113.41,-0.00042,-1.49,,,,,,,
113.44,-0.0004,2.06,,,,,,,
113.46,-0.00038,3.74,,,,,,,
113.47,-0.00037,5.16,,,,,,,
113.5,-0.00035,8.33,,,,,,,
113.52,-0.00032,11.61,,,,,,,
113.55,-0.0003,14.85,,,,,,,
113.55,-0.0003,14.92,,,,,,,
113.59,-0.00027,17.95,,,,,,,
113.62,-0.00025,20.97,,,,,,,
113.65,-0.00022,24.01,,,,,,,
113.65,-0.00022,24.62,,,,,,,
113.67,-0.0002,26.84,,,,,,,
113.7,-0.00017,29.97,,,,,,,
113.73,-0.00014,33.01,,,,,,,
287.93,-0.00013,36.98,,,,,,,
287.95,-0.0001,39.9,,,,,,,
287.97,-9e-05,41.69,,,,,,,
287.98,-8e-05,42.92,,,,,,,
288.01,-5e-05,45.87,,,,,,,
288.03,-3e-05,48.54,,,,,,,
288.06,-0.0,51.46,,,,,,,
288.07,1e-05,52.91,,,,,,,
288.08,3e-05,54.41,,,,,,,
288.11,5e-05,57.12,,,,,,,
288.13,8e-05,59.93,,,,,,,
288.15,0.0001,62.7,,,,,,,
288.17,0.00012,64.99,,,,,,,
288.17,0.00013,65.6,,,,,,,
288.2,0.00015,68.33,,,,,,,
288.22,0.00018,70.95,,,,,,,
288.24,0.0002,73.63,,,,,,,
288.26,0.00023,76.27,,,,,,,
288.27,0.00023,76.83,,,,,,,
288.29,0.00025,78.83,,,,,,,
288.31,0.00028,81.18,,,,,,,
288.34,0.0003,83.55,,,,,,,
288.36,0.00033,85.9,,,,,,,
288.37,0.00033,86.35,,,,,,,
288.39,0.00035,88.11,,,,,,,
288.42,0.00038,90.67,,,,,,,
288.44,0.0004,93.03,,,,,,,
288.47,0.00043,95.3,,,,,,,
288.47,0.00043,95.5,,,,,,,
288.49,0.00045,97.48,,,,,,,
288.52,0.00048,99.55,,,,,,,
288.54,0.00051,101.94,,,,,,,
288.57,0.00053,103.9,,,,,,,
288.57,0.00053,104.02,,,,,,,
288.59,0.00056,106.03,,,,,,,
288.62,0.00058,108.23,,,,,,,
288.65,0.00061,110.47,,,,,,,
288.67,0.00063,112.31,,,,,,,
288.67,0.00063,112.39,,,,,,,
288.69,0.00066,114.45,,,,,,,
288.72,0.00068,116.51,,,,,,,
288.74,0.00071,118.21,,,,,,,
288.77,0.00073,119.55,,,,,,,
288.77,0.00073,119.66,,,,,,,
288.79,0.00076,121.49,,,,,,,
288.82,0.00078,123.41,,,,,,,
288.84,0.00081,125.28,,,,,,,
288.87,0.00083,126.88,,,,,,,
288.87,0.00083,127.09,,,,,,,
288.9,0.00086,128.89,,,,,,,
288.92,0.00088,130.65,,,,,,,
288.95,0.00091,132.47,,,,,,,
288.97,0.00093,133.8,,,,,,,
288.97,0.00093,134.3,,,,,,,
289.0,0.00096,136.06,,,,,,,
289.02,0.00098,137.75,,,,,,,
289.05,0.00101,139.49,,,,,,,
289.07,0.00103,140.73,,,,,,,
289.07,0.00104,141.23,,,,,,,
289.1,0.00106,142.75,,,,,,,
289.12,0.00109,144.28,,,,,,,
289.15,0.00111,145.96,,,,,,,
289.17,0.00113,147.13,,,,,,,
289.17,0.00114,147.6,,,,,,,
289.19,0.00116,149.01,,,,,,,
289.22,0.00119,150.39,,,,,,,
289.24,0.00121,151.73,,,,,,,
289.27,0.00124,153.05,,,,,,,
289.27,0.00124,153.07,,,,,,,
289.29,0.00126,154.24,,,,,,,
289.32,0.00129,155.29,,,,,,,
289.34,0.00131,156.36,,,,,,,
289.36,0.00134,157.44,,,,,,,
289.37,0.00134,157.55,,,,,,,
289.39,0.00136,158.43,,,,,,,
289.41,0.00139,159.27,,,,,,,
289.43,0.00141,160.1,,,,,,,
289.46,0.00144,159.71,,,,,,,
289.46,0.00144,159.57,,,,,,,
289.56,0.00141,144.38,,,,,,,
289.56,0.00141,144.08,,,,,,,
289.59,0.00139,138.84,,,,,,,
289.62,0.00136,133.57,,,,,,,
289.64,0.00134,128.6,,,,,,,
289.66,0.00132,124.5,,,,,,,
289.67,0.00131,123.56,,,,,,,
289.69,0.00129,118.93,,,,,,,
289.72,0.00126,114.7,,,,,,,
289.74,0.00124,110.63,,,,,,,
289.76,0.00122,107.22,,,,,,,
289.77,0.00121,106.28,,,,,,,
289.8,0.00119,102.11,,,,,,,
289.82,0.00116,98.49,,,,,,,
289.85,0.00114,94.23,,,,,,,
289.86,0.00112,91.65,,,,,,,
289.87,0.00111,90.13,,,,,,,
289.9,0.00109,86.33,,,,,,,
289.93,0.00106,82.31,,,,,,,
289.95,0.00104,78.95,,,,,,,
289.96,0.00102,77.06,,,,,,,
289.98,0.00101,75.15,,,,,,,
290.0,0.00099,71.33,,,,,,,
290.03,0.00096,67.64,,,,,,,
290.06,0.00093,63.98,,,,,,,
290.06,0.00093,62.86,,,,,,,
290.08,0.00091,60.41,,,,,,,
290.11,0.00088,57.0,,,,,,,
290.13,0.00086,53.44,,,,,,,
290.16,0.00083,50.04,,,,,,,
290.16,0.00083,49.72,,,,,,,
290.19,0.00081,46.41,,,,,,,
290.21,0.00078,43.24,,,,,,,
290.24,0.00076,39.62,,,,,,,
290.26,0.00074,36.96,,,,,,,
290.27,0.00073,36.31,,,,,,,
290.29,0.00071,33.67,,,,,,,
290.31,0.00068,30.9,,,,,,,
290.34,0.00066,27.74,,,,,,,
290.36,0.00064,25.32,,,,,,,
290.37,0.00063,24.32,,,,,,,
290.4,0.00061,20.97,,,,,,,
290.43,0.00058,17.77,,,,,,,
290.45,0.00056,14.3,,,,,,,
290.46,0.00055,13.62,,,,,,,
290.48,0.00053,11.1,,,,,,,
290.51,0.0005,7.94,,,,,,,
290.55,0.00048,4.76,,,,,,,
290.56,0.00047,3.84,,,,,,,
290.58,0.00045,1.69,,,,,,,
290.61,0.00043,-1.62,,,,,,,
290.64,0.0004,-4.75,,,,,,,
290.66,0.00039,-7.02,,,,,,,
290.67,0.00038,-8.05,,,,,,,
290.69,0.00035,-10.98,,,,,,,
290.72,0.00033,-14.51,,,,,,,
290.75,0.0003,-17.62,,,,,,,
290.76,0.00029,-18.64,,,,,,,
290.78,0.00028,-20.5,,,,,,,
290.8,0.00025,-23.46,,,,,,,
290.83,0.00023,-26.62,,,,,,,
290.85,0.0002,-29.78,,,,,,,
290.86,0.00019,-30.66,,,,,,,
290.88,0.00018,-32.57,,,,,,,
290.9,0.00015,-35.92,,,,,,,
290.92,0.00013,-38.87,,,,,,,
290.94,0.0001,-41.94,,,,,,,
290.96,8e-05,-44.58,,,,,,,
290.96,8e-05,-44.66,,,,,,,
290.98,5e-05,-47.45,,,,,,,
291.0,3e-05,-50.31,,,,,,,
291.03,0.0,-52.95,,,,,,,
291.05,-2e-05,-55.66,,,,,,,
291.06,-3e-05,-56.14,,,,,,,
291.08,-5e-05,-58.32,,,,,,,
291.1,-8e-05,-60.74,,,,,,,
291.13,-0.0001,-63.4,,,,,,,
291.15,-0.00013,-65.79,,,,,,,
291.16,-0.00013,-66.26,,,,,,,
291.18,-0.00015,-68.42,,,,,,,
291.21,-0.00018,-70.87,,,,,,,
291.23,-0.0002,-73.15,,,,,,,
291.26,-0.00023,-75.78,,,,,,,
291.26,-0.00023,-75.84,,,,,,,
291.28,-0.00025,-78.2,,,,,,,
291.31,-0.00028,-80.88,,,,,,,
291.33,-0.0003,-83.12,,,,,,,
291.36,-0.00033,-85.47,,,,,,,
291.36,-0.00033,-85.52,,,,,,,
291.38,-0.00035,-87.83,,,,,,,
291.41,-0.00038,-90.3,,,,,,,
291.43,-0.0004,-92.66,,,,,,,
291.46,-0.00043,-94.78,,,,,,,
291.48,-0.00045,-96.97,,,,,,,
291.51,-0.00048,-99.26,,,,,,,
291.53,-0.0005,-101.3,,,,,,,
291.56,-0.00053,-103.3,,,,,,,
291.56,-0.00053,-103.3,,,,,,,
291.59,-0.00056,-105.4,,,,,,,
291.6,-0.00058,-106.8,,,,,,,
291.63,-0.00061,-108.5,,,,,,,
291.65,-0.00063,-110.1,,,,,,,
291.66,-0.00063,-110.4,,,,,,,
291.68,-0.00066,-112.3,,,,,,,
291.71,-0.00068,-114.3,,,,,,,
291.73,-0.00071,-116.2,,,,,,,
291.76,-0.00073,-117.9,,,,,,,
291.76,-0.00073,-118.3,,,,,,,
291.79,-0.00076,-120.6,,,,,,,
291.82,-0.00078,-122.7,,,,,,,
291.84,-0.00081,-124.8,,,,,,,
291.86,-0.00082,-126.0,,,,,,,
291.86,-0.00083,-126.7,,,,,,,
291.89,-0.00086,-128.7,,,,,,,
291.92,-0.00088,-130.6,,,,,,,
291.94,-0.00091,-132.6,,,,,,,
291.96,-0.00092,-133.4,,,,,,,
291.97,-0.00093,-134.6,,,,,,,
292.0,-0.00096,-136.4,,,,,,,
292.02,-0.00098,-138.3,,,,,,,
292.05,-0.00101,-140.2,,,,,,,
292.05,-0.00102,-140.9,,,,,,,
292.07,-0.00103,-142.2,,,,,,,
292.1,-0.00106,-143.9,,,,,,,
292.12,-0.00108,-145.8,,,,,,,
292.15,-0.00111,-147.5,,,,,,,
292.15,-0.00111,-147.9,,,,,,,
292.17,-0.00114,-149.3,,,,,,,
292.2,-0.00116,-151.0,,,,,,,
292.22,-0.00119,-152.4,,,,,,,
292.25,-0.00121,-154.0,,,,,,,
292.25,-0.00122,-154.4,,,,,,,
292.27,-0.00124,-155.5,,,,,,,
292.29,-0.00126,-156.7,,,,,,,
292.32,-0.00129,-157.9,,,,,,,
292.34,-0.00131,-159.2,,,,,,,
292.35,-0.00132,-159.6,,,,,,,
292.37,-0.00134,-160.4,,,,,,,
292.39,-0.00136,-161.4,,,,,,,
292.42,-0.00139,-162.7,,,,,,,
292.44,-0.00141,-163.7,,,,,,,
292.45,-0.00143,-163.9,,,,,,,
292.47,-0.00144,-163.0,,,,,,,
292.55,-0.00142,-150.7,,,,,,,
292.56,-0.00141,-150.2,,,,,,,
292.59,-0.00139,-144.1,,,,,,,
292.61,-0.00136,-138.9,,,,,,,
292.64,-0.00134,-133.8,,,,,,,
292.65,-0.00132,-131.3,,,,,,,
292.66,-0.00131,-129.4,,,,,,,
292.69,-0.00129,-125.0,,,,,,,
292.72,-0.00126,-120.1,,,,,,,
292.74,-0.00124,-115.8,,,,,,,
292.75,-0.00123,-114.1,,,,,,,
292.77,-0.00121,-111.6,,,,,,,
292.79,-0.00119,-107.6,,,,,,,
292.82,-0.00116,-103.5,,,,,,,
292.84,-0.00114,-99.57,,,,,,,
292.85,-0.00113,-98.39,,,,,,,
292.87,-0.00111,-95.55,,,,,,,
292.9,-0.00109,-91.51,,,,,,,
292.93,-0.00106,-87.62,,,,,,,
292.95,-0.00104,-84.05,,,,,,,
292.95,-0.00103,-83.8,,,,,,,
292.98,-0.00101,-80.09,,,,,,,
293.0,-0.00098,-76.43,,,,,,,
293.03,-0.00096,-72.76,,,,,,,
293.05,-0.00094,-70.07,,,,,,,
293.06,-0.00093,-69.33,,,,,,,
293.08,-0.00091,-65.41,,,,,,,
293.11,-0.00088,-61.58,,,,,,,
293.14,-0.00086,-58.38,,,,,,,
293.15,-0.00084,-56.42,,,,,,,
293.16,-0.00083,-54.81,,,,,,,
293.19,-0.00081,-51.27,,,,,,,
293.22,-0.00078,-47.67,,,,,,,
293.24,-0.00076,-44.32,,,,,,,
293.25,-0.00075,-43.33,,,,,,,
293.27,-0.00073,-40.74,,,,,,,
293.3,-0.00071,-37.15,,,,,,,
293.32,-0.00068,-33.64,,,,,,,
293.35,-0.00066,-30.08,,,,,,,
293.35,-0.00066,-30.02,,,,,,,
293.37,-0.00063,-26.86,,,,,,,
293.4,-0.00061,-23.54,,,,,,,
293.42,-0.00058,-20.87,,,,,,,
293.44,-0.00056,-18.35,,,,,,,
293.45,-0.00055,-17.73,,,,,,,
293.47,-0.00053,-15.19,,,,,,,
293.5,-0.0005,-11.91,,,,,,,
293.53,-0.00048,-8.27,,,,,,,
293.55,-0.00046,-6.52,,,,,,,
293.56,-0.00045,-5.35,,,,,,,
293.59,-0.00043,-2.02,,,,,,,
293.61,-0.0004,1.16,,,,,,,
293.64,-0.00038,4.32,,,,,,,
293.65,-0.00037,5.77,,,,,,,
293.67,-0.00035,7.81,,,,,,,
293.69,-0.00033,10.88,,,,,,,
293.72,-0.0003,13.69,,,,,,,
293.75,-0.00028,16.43,,,,,,,
293.75,-0.00028,16.73,,,,,,,
293.78,-0.00025,19.55,,,,,,,
293.82,-0.00023,22.56,,,,,,,
293.85,-0.0002,25.64,,,,,,,
293.85,-0.0002,25.89,,,,,,,
293.87,-0.00018,28.59,,,,,,,
293.9,-0.00015,31.58,,,,,,,
588.22,-0.00012,35.26,,,,,,,
588.25,-0.0001,38.04,,,,,,,
588.28,-7e-05,40.85,,,,,,,
588.29,-6e-05,42.59,,,,,,,
588.3,-5e-05,43.82,,,,,,,
588.33,-2e-05,46.46,,,,,,,
588.36,0.0,49.68,,,,,,,
588.38,3e-05,52.55,,,,,,,
588.39,4e-05,53.56,,,,,,,
588.41,5e-05,55.55,,,,,,,
588.43,8e-05,58.42,,,,,,,
588.46,0.0001,61.58,,,,,,,
588.48,0.00013,64.31,,,,,,,
588.49,0.00015,66.37,,,,,,,
588.5,0.00015,67.0,,,,,,,
588.52,0.00018,69.85,,,,,,,
588.54,0.00021,72.69,,,,,,,
588.57,0.00023,75.27,,,,,,,
588.59,0.00026,78.0,,,,,,,
588.59,0.00026,78.26,,,,,,,
588.61,0.00028,80.53,,,,,,,
588.64,0.00031,83.01,,,,,,,
588.66,0.00033,85.53,,,,,,,
588.69,0.00036,88.2,,,,,,,
588.69,0.00036,88.45,,,,,,,
588.71,0.00038,90.63,,,,,,,
588.74,0.00041,93.0,,,,,,,
588.76,0.00043,95.24,,,,,,,
588.79,0.00046,97.5,,,,,,,
588.79,0.00046,97.52,,,,,,,
588.82,0.00048,99.75,,,,,,,
588.84,0.00051,102.03,,,,,,,
588.87,0.00053,104.21,,,,,,,
588.89,0.00056,106.09,,,,,,,
588.89,0.00056,106.28,,,,,,,
588.92,0.00058,108.62,,,,,,,
588.95,0.00061,110.64,,,,,,,
588.97,0.00063,112.78,,,,,,,
588.99,0.00065,114.29,,,,,,,
589.0,0.00066,114.86,,,,,,,
589.02,0.00069,117.07,,,,,,,
589.04,0.00071,118.57,,,,,,,
589.07,0.00074,120.17,,,,,,,
589.09,0.00076,121.9,,,,,,,
589.09,0.00076,122.17,,,,,,,
589.12,0.00079,124.2,,,,,,,
589.15,0.00081,126.13,,,,,,,
589.17,0.00084,128.23,,,,,,,
589.19,0.00086,129.45,,,,,,,
589.2,0.00086,130.07,,,,,,,
589.22,0.00089,132.0,,,,,,,
589.25,0.00091,133.74,,,,,,,
589.27,0.00094,135.55,,,,,,,
589.29,0.00095,136.61,,,,,,,
589.3,0.00096,137.46,,,,,,,
589.32,0.00099,139.07,,,,,,,
589.35,0.00101,141.02,,,,,,,
589.38,0.00104,142.67,,,,,,,
589.39,0.00105,143.57,,,,,,,
589.4,0.00107,144.41,,,,,,,
589.42,0.00109,145.97,,,,,,,
589.45,0.00112,147.73,,,,,,,
589.47,0.00114,149.24,,,,,,,
589.49,0.00116,150.4,,,,,,,
589.49,0.00117,150.64,,,,,,,
589.52,0.00119,152.05,,,,,,,
589.54,0.00122,153.1,,,,,,,
589.57,0.00124,154.28,,,,,,,
589.59,0.00126,155.26,,,,,,,
589.59,0.00127,155.31,,,,,,,
589.62,0.00129,156.43,,,,,,,
589.64,0.00132,157.28,,,,,,,
589.67,0.00134,158.26,,,,,,,
589.69,0.00137,159.14,,,,,,,
589.69,0.00137,159.17,,,,,,,
589.71,0.00139,159.99,,,,,,,
589.73,0.00142,160.77,,,,,,,
589.77,0.00144,159.88,,,,,,,
589.79,0.00145,157.81,,,,,,,
589.85,0.00142,146.45,,,,,,,
589.88,0.00139,140.39,,,,,,,
589.89,0.00139,139.63,,,,,,,
589.91,0.00137,135.1,,,,,,,
589.93,0.00134,130.46,,,,,,,
589.96,0.00132,125.48,,,,,,,
589.98,0.00129,121.08,,,,,,,
589.99,0.00129,120.66,,,,,,,
590.01,0.00127,116.57,,,,,,,
590.03,0.00124,112.69,,,,,,,
590.06,0.00122,108.56,,,,,,,
590.08,0.00119,104.52,,,,,,,
590.09,0.00119,104.1,,,,,,,
590.11,0.00117,100.52,,,,,,,
590.14,0.00114,96.6,,,,,,,
590.16,0.00112,92.57,,,,,,,
590.19,0.00109,89.19,,,,,,,
590.19,0.00109,88.58,,,,,,,
590.21,0.00107,84.9,,,,,,,
590.24,0.00104,81.08,,,,,,,
590.27,0.00102,77.47,,,,,,,
590.29,0.001,74.55,,,,,,,
590.29,0.00099,73.65,,,,,,,
590.32,0.00096,70.09,,,,,,,
590.35,0.00094,66.35,,,,,,,
590.37,0.00091,62.68,,,,,,,
590.38,0.0009,61.02,,,,,,,
590.4,0.00089,59.35,,,,,,,
590.43,0.00086,55.69,,,,,,,
590.45,0.00084,52.32,,,,,,,
590.48,0.00081,48.68,,,,,,,
590.48,0.00081,47.97,,,,,,,
590.5,0.00079,45.38,,,,,,,
590.53,0.00076,42.01,,,,,,,
590.56,0.00074,38.18,,,,,,,
590.58,0.00071,35.7,,,,,,,
590.58,0.0007,35.08,,,,,,,
590.6,0.00069,33.07,,,,,,,
590.63,0.00066,29.8,,,,,,,
590.66,0.00064,26.08,,,,,,,
590.68,0.00062,23.44,,,,,,,
590.69,0.00061,22.83,,,,,,,
590.72,0.00059,19.24,,,,,,,
590.75,0.00056,15.92,,,,,,,
590.78,0.00054,12.19,,,,,,,
590.78,0.00053,11.32,,,,,,,
590.8,0.00051,9.27,,,,,,,
590.84,0.00048,6.04,,,,,,,
590.87,0.00046,2.52,,,,,,,
590.88,0.00045,1.44,,,,,,,
590.9,0.00043,-0.85,,,,,,,
590.93,0.00041,-3.99,,,,,,,
590.96,0.00038,-7.48,,,,,,,
590.98,0.00036,-9.91,,,,,,,
590.99,0.00036,-10.85,,,,,,,
591.02,0.00033,-14.0,,,,,,,
591.04,0.00031,-17.07,,,,,,,
591.07,0.00028,-20.14,,,,,,,
591.08,0.00027,-21.92,,,,,,,
591.09,0.00026,-23.49,,,,,,,
591.12,0.00023,-26.39,,,,,,,
591.15,0.00021,-29.52,,,,,,,
591.17,0.00018,-32.39,,,,,,,
591.18,0.00017,-34.26,,,,,,,
591.19,0.00016,-35.57,,,,,,,
591.21,0.00013,-38.71,,,,,,,
591.23,0.00011,-41.49,,,,,,,
591.25,8e-05,-44.36,,,,,,,
591.28,5e-05,-47.04,,,,,,,
591.28,5e-05,-47.76,,,,,,,
591.3,3e-05,-50.06,,,,,,,
591.32,0.0,-52.77,,,,,,,
591.35,-2e-05,-55.58,,,,,,,
591.37,-5e-05,-58.25,,,,,,,
591.38,-5e-05,-58.91,,,,,,,
591.4,-7e-05,-60.92,,,,,,,
591.43,-0.0001,-63.85,,,,,,,
591.45,-0.00012,-66.4,,,,,,,
591.48,-0.00015,-69.04,,,,,,,
591.48,-0.00015,-69.35,,,,,,,
591.5,-0.00017,-71.63,,,,,,,
591.53,-0.0002,-74.23,,,,,,,
591.55,-0.00022,-76.58,,,,,,,
591.58,-0.00025,-79.01,,,,,,,
591.58,-0.00025,-79.06,,,,,,,
591.61,-0.00027,-81.65,,,,,,,
591.63,-0.0003,-84.11,,,,,,,
591.65,-0.00032,-86.53,,,,,,,
591.68,-0.00035,-89.0,,,,,,,
591.68,-0.00035,-89.08,,,,,,,
591.71,-0.00038,-91.55,,,,,,,
591.73,-0.0004,-94.0,,,,,,,
591.75,-0.00043,-96.11,,,,,,,
591.78,-0.00045,-98.47,,,,,,,
591.78,-0.00045,-98.54,,,,,,,
591.81,-0.00048,-101.0,,,,,,,
591.83,-0.0005,-103.3,,,,,,,
591.86,-0.00053,-105.5,,,,,,,
591.88,-0.00055,-107.6,,,,,,,
591.88,-0.00055,-107.8,,,,,,,
591.9,-0.00058,-109.5,,,,,,,
591.92,-0.0006,-111.2,,,,,,,
591.95,-0.00063,-112.9,,,,,,,
591.98,-0.00065,-114.8,,,,,,,
591.98,-0.00065,-115.0,,,,,,,
592.0,-0.00068,-116.9,,,,,,,
592.03,-0.0007,-118.8,,,,,,,
592.06,-0.00073,-120.8,,,,,,,
592.08,-0.00075,-122.5,,,,,,,
592.08,-0.00075,-122.9,,,,,,,
592.11,-0.00078,-125.2,,,,,,,
592.13,-0.0008,-126.9,,,,,,,
592.16,-0.00083,-128.9,,,,,,,
592.18,-0.00084,-130.1,,,,,,,
592.19,-0.00085,-130.9,,,,,,,
592.21,-0.00088,-132.9,,,,,,,
592.24,-0.00091,-134.8,,,,,,,
592.26,-0.00093,-136.7,,,,,,,
592.28,-0.00094,-138.0,,,,,,,
592.29,-0.00096,-138.7,,,,,,,
592.31,-0.00098,-140.5,,,,,,,
592.34,-0.00101,-142.2,,,,,,,
592.36,-0.00103,-144.0,,,,,,,
592.38,-0.00105,-144.9,,,,,,,
592.39,-0.00106,-145.6,,,,,,,
592.41,-0.00108,-147.1,,,,,,,
592.44,-0.00111,-148.7,,,,,,,
592.46,-0.00113,-150.5,,,,,,,
592.48,-0.00115,-151.4,,,,,,,
592.49,-0.00116,-151.9,,,,,,,
592.51,-0.00118,-153.3,,,,,,,
592.54,-0.00121,-154.8,,,,,,,
592.56,-0.00123,-156.1,,,,,,,
592.58,-0.00125,-156.7,,,,,,,
592.59,-0.00126,-157.2,,,,,,,
592.61,-0.00128,-158.3,,,,,,,
592.64,-0.00131,-159.5,,,,,,,
592.66,-0.00133,-160.7,,,,,,,
592.68,-0.00135,-161.5,,,,,,,
592.68,-0.00136,-161.7,,,,,,,
592.71,-0.00139,-162.6,,,,,,,
592.73,-0.00141,-163.5,,,,,,,
592.76,-0.00144,-163.2,,,,,,,
592.78,-0.00144,-162.1,,,,,,,
592.86,-0.00141,-148.8,,,,,,,
592.88,-0.00139,-145.2,,,,,,,
592.89,-0.00139,-143.1,,,,,,,
592.91,-0.00136,-137.9,,,,,,,
592.94,-0.00134,-132.6,,,,,,,
592.97,-0.00131,-127.8,,,,,,,
592.97,-0.0013,-126.1,,,,,,,
592.99,-0.00129,-123.3,,,,,,,
593.02,-0.00126,-118.7,,,,,,,
593.04,-0.00123,-114.4,,,,,,,
593.07,-0.00121,-110.0,,,,,,,
593.07,-0.0012,-109.2,,,,,,,
593.09,-0.00118,-106.1,,,,,,,
593.12,-0.00116,-101.9,,,,,,,
593.15,-0.00113,-98.01,,,,,,,
593.17,-0.00111,-93.88,,,,,,,
593.17,-0.00111,-93.66,,,,,,,
593.2,-0.00108,-89.88,,,,,,,
593.23,-0.00106,-85.99,,,,,,,
593.25,-0.00103,-82.48,,,,,,,
593.27,-0.00101,-79.26,,,,,,,
593.28,-0.00101,-78.67,,,,,,,
593.3,-0.00098,-75.02,,,,,,,
593.33,-0.00096,-71.33,,,,,,,
593.36,-0.00093,-67.86,,,,,,,
593.37,-0.00092,-65.38,,,,,,,
593.38,-0.00091,-64.05,,,,,,,
593.41,-0.00088,-60.52,,,,,,,
593.44,-0.00086,-56.93,,,,,,,
593.46,-0.00083,-53.24,,,,,,,
593.47,-0.00082,-52.1,,,,,,,
593.49,-0.00081,-49.85,,,,,,,
593.52,-0.00078,-46.22,,,,,,,
593.54,-0.00076,-42.88,,,,,,,
593.57,-0.00073,-39.04,,,,,,,
593.57,-0.00073,-38.74,,,,,,,
593.59,-0.0007,-35.61,,,,,,,
593.62,-0.00068,-32.07,,,,,,,
593.65,-0.00065,-28.6,,,,,,,
593.67,-0.00063,-25.38,,,,,,,
593.67,-0.00063,-25.31,,,,,,,
593.7,-0.0006,-21.96,,,,,,,
593.72,-0.00058,-19.43,,,,,,,
593.74,-0.00055,-16.95,,,,,,,
593.77,-0.00053,-13.63,,,,,,,
593.8,-0.0005,-10.11,,,,,,,
593.83,-0.00048,-6.76,,,,,,,
593.86,-0.00045,-3.51,,,,,,,
593.87,-0.00044,-1.68,,,,,,,
593.88,-0.00043,-0.3,,,,,,,
593.91,-0.0004,2.83,,,,,,,
593.94,-0.00038,6.33,,,,,,,
593.96,-0.00035,9.56,,,,,,,
593.97,-0.00034,10.42,,,,,,,
593.99,-0.00033,12.55,,,,,,,
594.02,-0.0003,15.52,,,,,,,
594.05,-0.00027,18.49,,,,,,,
594.07,-0.00026,19.77,,,,,,,
594.09,-0.00025,21.4,,,,,,,
594.12,-0.00022,24.35,,,,,,,
594.15,-0.0002,27.24,,,,,,,
594.17,-0.00018,29.76,,,,,,,
594.17,-0.00017,30.17,,,,,,,
594.2,-0.00015,33.09,,,,,,,
1184.31,0.00141,160.9,,,,,,,
1184.33,0.00143,161.02,,,,,,,
1184.36,0.00145,159.87,,,,,,,
1184.45,0.00141,143.71,,,,,,,
1184.46,0.0014,143.0,,,,,,,
1184.48,0.00138,138.43,,,,,,,
1184.5,0.00136,133.3,,,,,,,
1184.53,0.00133,128.34,,,,,,,
1184.55,0.00131,123.98,,,,,,,
1184.56,0.0013,123.75,,,,,,,
1184.58,0.00128,119.1,,,,,,,
1184.61,0.00125,114.86,,,,,,,
1184.63,0.00123,110.47,,,,,,,
1184.65,0.00121,106.83,,,,,,,
1184.66,0.0012,106.37,,,,,,,
1184.68,0.00118,102.19,,,,,,,
1184.71,0.00115,98.2,,,,,,,
1184.74,0.00113,94.09,,,,,,,
1184.75,0.00111,91.52,,,,,,,
1184.76,0.0011,90.29,,,,,,,
1184.79,0.00108,86.3,,,,,,,
1184.81,0.00105,82.54,,,,,,,
1184.84,0.00103,78.84,,,,,,,
1184.85,0.00101,76.99,,,,,,,
1184.87,0.001,74.97,,,,,,,
1184.89,0.00098,71.42,,,,,,,
1184.92,0.00095,67.73,,,,,,,
1184.95,0.00093,64.23,,,,,,,
1184.95,0.00092,63.14,,,,,,,
1184.97,0.0009,60.49,,,,,,,
1185.0,0.00088,57.17,,,,,,,
1185.03,0.00085,53.6,,,,,,,
1185.05,0.00083,50.06,,,,,,,
1185.05,0.00082,49.95,,,,,,,
1185.08,0.0008,46.74,,,,,,,
1185.11,0.00077,43.06,,,,,,,
1185.13,0.00075,39.5,,,,,,,
1185.15,0.00073,36.77,,,,,,,
1185.16,0.00072,36.28,,,,,,,
1185.17,0.0007,33.96,,,,,,,
1185.2,0.00067,30.83,,,,,,,
1185.23,0.00065,27.2,,,,,,,
1185.25,0.00063,24.95,,,,,,,
1185.26,0.00062,23.85,,,,,,,
1185.29,0.0006,20.37,,,,,,,
1185.32,0.00057,17.11,,,,,,,
1185.35,0.00055,13.9,,,,,,,
1185.35,0.00054,13.09,,,,,,,
1185.37,0.00052,10.57,,,,,,,
1185.41,0.0005,7.41,,,,,,,
1185.44,0.00047,4.33,,,,,,,
1185.45,0.00047,3.44,,,,,,,
1185.48,0.00045,0.94,,,,,,,
1185.5,0.00042,-2.35,,,,,,,
1185.53,0.0004,-5.52,,,,,,,
1185.55,0.00038,-7.63,,,,,,,
1185.56,0.00037,-8.77,,,,,,,
1185.59,0.00035,-11.96,,,,,,,
1185.62,0.00032,-15.42,,,,,,,
1185.64,0.00029,-18.33,,,,,,,
1185.65,0.00028,-19.57,,,,,,,
1185.67,0.00027,-21.45,,,,,,,
1185.69,0.00024,-24.76,,,,,,,
1185.72,0.00022,-27.84,,,,,,,
1185.74,0.00019,-30.85,,,,,,,
1185.75,0.00019,-31.56,,,,,,,
1185.77,0.00017,-34.12,,,,,,,
1185.79,0.00014,-37.33,,,,,,,
1185.81,0.00012,-40.25,,,,,,,
1185.83,9e-05,-43.32,,,,,,,
1185.85,7e-05,-45.94,,,,,,,
1185.85,7e-05,-46.39,,,,,,,
1185.87,4e-05,-49.14,,,,,,,
1185.9,2e-05,-52.04,,,,,,,
1185.92,-1e-05,-54.78,,,,,,,
1185.95,-3e-05,-57.59,,,,,,,
1185.95,-4e-05,-57.82,,,,,,,
1185.97,-6e-05,-60.1,,,,,,,
1186.0,-8e-05,-62.69,,,,,,,
1186.02,-0.00011,-65.3,,,,,,,
1186.05,-0.00013,-67.66,,,,,,,
1186.05,-0.00014,-67.99,,,,,,,
1186.07,-0.00016,-70.25,,,,,,,
1186.1,-0.00019,-72.81,,,,,,,
1186.12,-0.00021,-75.1,,,,,,,
1186.15,-0.00024,-77.46,,,,,,,
1186.17,-0.00026,-79.82,,,,,,,
1186.2,-0.00029,-82.25,,,,,,,
1186.22,-0.00031,-84.62,,,,,,,
1186.25,-0.00034,-87.06,,,,,,,
1186.27,-0.00036,-89.46,,,,,,,
1186.3,-0.00039,-91.89,,,,,,,
1186.32,-0.00041,-94.07,,,,,,,
1186.35,-0.00044,-96.28,,,,,,,
1186.35,-0.00044,-96.45,,,,,,,
1186.37,-0.00046,-98.69,,,,,,,
1186.4,-0.00049,-101.2,,,,,,,
1186.42,-0.00051,-103.1,,,,,,,
1186.45,-0.00053,-105.1,,,,,,,
1186.45,-0.00054,-105.4,,,,,,,
1186.47,-0.00056,-107.3,,,,,,,
1186.49,-0.00059,-108.9,,,,,,,
1186.52,-0.00061,-110.7,,,,,,,
1186.55,-0.00064,-112.6,,,,,,,
1186.55,-0.00064,-112.6,,,,,,,
1186.57,-0.00066,-114.5,,,,,,,
1186.6,-0.00069,-116.7,,,,,,,
1186.63,-0.00071,-118.6,,,,,,,
1186.65,-0.00073,-120.1,,,,,,,
1186.65,-0.00074,-120.7,,,,,,,
1186.68,-0.00076,-122.7,,,,,,,
1186.71,-0.00079,-124.9,,,,,,,
1186.73,-0.00082,-126.9,,,,,,,
1186.75,-0.00083,-127.9,,,,,,,
1186.76,-0.00084,-128.7,,,,,,,
1186.78,-0.00087,-130.6,,,,,,,
1186.81,-0.00089,-132.6,,,,,,,
1186.83,-0.00092,-134.5,,,,,,,
1186.85,-0.00093,-135.4,,,,,,,
1186.86,-0.00094,-136.3,,,,,,,
1186.88,-0.00097,-138.3,,,,,,,
1186.91,-0.00099,-140.1,,,,,,,
1186.93,-0.00102,-141.7,,,,,,,
1186.95,-0.00103,-142.5,,,,,,,
1186.96,-0.00104,-143.4,,,,,,,
1186.99,-0.00107,-145.2,,,,,,,
1187.01,-0.00109,-146.8,,,,,,,
1187.04,-0.00112,-148.6,,,,,,,
1187.05,-0.00113,-149.1,,,,,,,
1187.06,-0.00114,-150.3,,,,,,,
1187.09,-0.00117,-151.8,,,,,,,
1187.11,-0.00119,-153.3,,,,,,,
1187.13,-0.00122,-154.8,,,,,,,
1187.14,-0.00123,-155.4,,,,,,,
1187.16,-0.00124,-156.1,,,,,,,
1187.18,-0.00127,-157.4,,,,,,,
1187.21,-0.00129,-158.7,,,,,,,
1187.23,-0.00132,-159.9,,,,,,,
1187.24,-0.00133,-160.4,,,,,,,
1187.26,-0.00135,-160.9,,,,,,,
1187.28,-0.00137,-162.0,,,,,,,
1187.3,-0.0014,-163.0,,,,,,,
1187.33,-0.00142,-163.8,,,,,,,
1187.34,-0.00143,-163.3,,,,,,,
1187.44,-0.00141,-148.6,,,,,,,
1187.45,-0.0014,-146.4,,,,,,,
1187.48,-0.00137,-141.0,,,,,,,
1187.51,-0.00135,-135.7,,,,,,,
1187.54,-0.00132,-131.0,,,,,,,
1187.54,-0.00131,-129.7,,,,,,,
1187.56,-0.00129,-126.3,,,,,,,
1187.59,-0.00127,-121.7,,,,,,,
1187.61,-0.00124,-117.5,,,,,,,
1187.64,-0.00122,-113.2,,,,,,,
1187.64,-0.00122,-112.6,,,,,,,
1187.66,-0.00119,-109.1,,,,,,,
1187.69,-0.00117,-105.1,,,,,,,
1187.71,-0.00114,-101.3,,,,,,,
1187.74,-0.00112,-97.26,,,,,,,
1187.74,-0.00112,-97.07,,,,,,,
1187.77,-0.00109,-93.13,,,,,,,
1187.8,-0.00107,-89.24,,,,,,,
1187.82,-0.00104,-85.73,,,,,,,
1187.84,-0.00102,-82.61,,,,,,,
1187.85,-0.00102,-81.8,,,,,,,
1187.87,-0.00099,-78.26,,,,,,,
1187.9,-0.00097,-74.7,,,,,,,
1187.93,-0.00094,-71.06,,,,,,,
1187.94,-0.00093,-69.08,,,,,,,
1187.95,-0.00092,-67.43,,,,,,,
1187.98,-0.00089,-63.87,,,,,,,
1188.01,-0.00087,-59.95,,,,,,,
1188.03,-0.00084,-56.68,,,,,,,
1188.04,-0.00083,-55.73,,,,,,,
1188.06,-0.00082,-53.1,,,,,,,
1188.09,-0.00079,-49.65,,,,,,,
1188.11,-0.00077,-46.27,,,,,,,
1188.14,-0.00074,-42.69,,,,,,,
1188.14,-0.00074,-42.47,,,,,,,
1188.17,-0.00072,-39.13,,,,,,,
1188.19,-0.00069,-35.57,,,,,,,
1188.22,-0.00066,-32.38,,,,,,,
1188.24,-0.00065,-29.46,,,,,,,
1188.25,-0.00064,-28.84,,,,,,,
1188.27,-0.00061,-25.39,,,,,,,
1188.3,-0.00059,-22.19,,,,,,,
1188.32,-0.00056,-19.7,,,,,,,
1188.34,-0.00054,-17.24,,,,,,,
1188.35,-0.00054,-16.69,,,,,,,
1188.38,-0.00051,-13.07,,,,,,,
1188.4,-0.00049,-9.82,,,,,,,
1188.43,-0.00046,-6.65,,,,,,,
1188.44,-0.00045,-5.31,,,,,,,
1188.46,-0.00044,-3.2,,,,,,,
1188.48,-0.00041,-0.08,,,,,,,
1188.51,-0.00039,3.25,,,,,,,
1188.54,-0.00036,6.61,,,,,,,
1188.54,-0.00036,6.9,,,,,,,
1188.56,-0.00034,9.69,,,,,,,
1188.59,-0.00031,12.84,,,,,,,
1188.62,-0.00029,15.73,,,,,,,
1188.64,-0.00027,17.35,,,,,,,
1188.65,-0.00026,18.7,,,,,,,
1188.69,-0.00024,21.7,,,,,,,
1188.71,-0.00021,24.48,,,,,,,
1188.74,-0.00019,27.01,,,,,,,
1188.75,-0.00018,27.87,,,,,,,
1188.77,-0.00016,30.8,,,,,,,
1188.8,-0.00013,33.66,,,,,,,
1188.83,-0.00011,36.77,,,,,,,
1188.84,-0.0001,37.61,,,,,,,
1188.86,-8e-05,39.61,,,,,,,
1188.88,-6e-05,42.58,,,,,,,
1188.91,-3e-05,45.41,,,,,,,
1188.94,-1e-05,48.22,,,,,,,
1188.94,-1e-05,48.5,,,,,,,
1188.96,2e-05,51.41,,,,,,,
1188.99,4e-05,54.47,,,,,,,
1189.01,7e-05,57.12,,,,,,,
1189.04,9e-05,60.05,,,,,,,
1189.04,0.0001,60.3,,,,,,,
1189.06,0.00012,63.0,,,,,,,
1189.08,0.00014,65.87,,,,,,,
1189.1,0.00017,68.56,,,,,,,
1189.12,0.00019,71.3,,,,,,,
1189.14,0.00021,73.07,,,,,,,
1189.15,0.00022,74.1,,,,,,,
1189.17,0.00025,76.66,,,,,,,
1189.19,0.00027,79.25,,,,,,,
1189.22,0.0003,81.6,,,,,,,
1189.24,0.00032,83.65,,,,,,,
1189.24,0.00032,84.18,,,,,,,
1189.27,0.00035,86.5,,,,,,,
1189.29,0.00037,89.06,,,,,,,
1189.32,0.0004,91.54,,,,,,,
1189.34,0.00042,93.11,,,,,,,
1189.34,0.00042,93.84,,,,,,,
1189.37,0.00045,96.15,,,,,,,
1189.39,0.00047,98.45,,,,,,,
1189.42,0.0005,100.66,,,,,,,
1189.44,0.00051,102.06,,,,,,,
1189.45,0.00052,102.95,,,,,,,
1189.47,0.00055,105.02,,,,,,,
1189.5,0.00057,107.23,,,,,,,
1189.52,0.0006,109.39,,,,,,,
1189.54,0.00061,110.21,,,,,,,
1189.55,0.00062,111.36,,,,,,,
1189.57,0.00065,113.49,,,,,,,
1189.6,0.00067,115.64,,,,,,,
1189.63,0.0007,117.63,,,,,,,
1189.63,0.00071,118.33,,,,,,,
1189.64,0.00073,118.93,,,,,,,
1189.67,0.00075,120.55,,,,,,,
1189.7,0.00078,122.62,,,,,,,
1189.72,0.0008,124.46,,,,,,,
1189.73,0.00081,125.26,,,,,,,
1189.75,0.00083,126.43,,,,,,,
1189.78,0.00085,128.41,,,,,,,
1189.8,0.00088,130.29,,,,,,,
1189.83,0.0009,132.12,,,,,,,
1189.83,0.00091,132.59,,,,,,,
1189.85,0.00093,134.04,,,,,,,
1189.88,0.00095,135.83,,,,,,,
1189.9,0.00098,137.6,,,,,,,
1189.93,0.001,139.4,,,,,,,
1189.93,0.00101,139.61,,,,,,,
1189.96,0.00103,141.21,,,,,,,
1189.98,0.00105,143.03,,,,,,,
1190.0,0.00108,144.68,,,,,,,
1190.03,0.0011,146.41,,,,,,,
1190.03,0.00111,146.79,,,,,,,
1190.05,0.00113,148.12,,,,,,,
1190.08,0.00115,149.63,,,,,,,
1190.1,0.00118,151.12,,,,,,,
1190.13,0.00121,152.6,,,,,,,
1190.13,0.00121,152.96,,,,,,,
1190.15,0.00123,153.9,,,,,,,
1190.17,0.00126,155.23,,,,,,,
1190.2,0.00128,156.46,,,,,,,
1190.22,0.00131,157.67,,,,,,,
1190.23,0.00132,158.23,,,,,,,
1190.24,0.00133,158.78,,,,,,,
1190.27,0.00136,159.81,,,,,,,
1190.29,0.00138,160.69,,,,,,,
2986.19,0.00142,162.52,,,,,,,
2986.19,0.00143,162.45,,,,,,,
2986.29,0.00142,149.89,,,,,,,
2986.32,0.0014,144.11,,,,,,,
2986.35,0.00137,138.79,,,,,,,
2986.37,0.00134,133.71,,,,,,,
2986.39,0.00133,130.82,,,,,,,
2986.4,0.00132,129.06,,,,,,,
2986.42,0.00129,124.19,,,,,,,
2986.45,0.00127,119.92,,,,,,,
2986.47,0.00124,115.75,,,,,,,
2986.49,0.00123,113.41,,,,,,,
2986.5,0.00122,111.15,,,,,,,
2986.53,0.00119,107.09,,,,,,,
2986.55,0.00117,103.1,,,,,,,
2986.58,0.00114,99.36,,,,,,,
2986.59,0.00113,97.74,,,,,,,
2986.61,0.00112,95.09,,,,,,,
2986.63,0.00109,90.99,,,,,,,
2986.66,0.00107,87.33,,,,,,,
2986.68,0.00104,83.5,,,,,,,
2986.69,0.00104,83.05,,,,,,,
2986.71,0.00102,79.73,,,,,,,
2986.74,0.00099,76.28,,,,,,,
2986.76,0.00097,72.55,,,,,,,
2986.79,0.00094,69.19,,,,,,,
2986.79,0.00094,68.85,,,,,,,
2986.82,0.00092,65.32,,,,,,,
2986.84,0.00089,61.71,,,,,,,
2986.87,0.00087,57.97,,,,,,,
2986.89,0.00085,55.6,,,,,,,
2986.89,0.00084,54.54,,,,,,,
2986.92,0.00082,51.0,,,,,,,
2986.95,0.00079,47.53,,,,,,,
2986.98,0.00076,44.05,,,,,,,
2986.99,0.00076,42.76,,,,,,,
2987.0,0.00074,40.5,,,,,,,
2987.02,0.00071,37.59,,,,,,,
2987.05,0.00069,34.82,,,,,,,
2987.07,0.00066,31.72,,,,,,,
2987.09,0.00065,30.3,,,,,,,
2987.1,0.00064,28.42,,,,,,,
2987.13,0.00061,24.8,,,,,,,
2987.16,0.00059,21.56,,,,,,,
2987.19,0.00056,18.21,,,,,,,
2987.21,0.00054,14.89,,,,,,,
2987.24,0.00051,11.54,,,,,,,
2987.27,0.00049,8.53,,,,,,,
2987.29,0.00048,7.62,,,,,,,
2987.31,0.00046,5.24,,,,,,,
2987.34,0.00044,2.05,,,,,,,
2987.37,0.00041,-1.38,,,,,,,
2987.38,0.0004,-2.57,,,,,,,
2987.4,0.00039,-4.66,,,,,,,
2987.43,0.00036,-7.99,,,,,,,
2987.46,0.00034,-11.43,,,,,,,
2987.48,0.00031,-14.49,,,,,,,
2987.49,0.00031,-14.75,,,,,,,
2987.51,0.00029,-17.94,,,,,,,
2987.54,0.00026,-21.16,,,,,,,
2987.56,0.00023,-24.11,,,,,,,
2987.58,0.00022,-26.38,,,,,,,
2987.59,0.00021,-27.44,,,,,,,
2987.62,0.00018,-30.63,,,,,,,
2987.64,0.00016,-33.75,,,,,,,
2987.66,0.00013,-36.87,,,,,,,
2987.68,0.00011,-40.15,,,,,,,
2987.68,0.00011,-40.21,,,,,,,
2987.7,8e-05,-43.09,,,,,,,
2987.72,6e-05,-45.89,,,,,,,
2987.75,3e-05,-48.73,,,,,,,
2987.77,1e-05,-51.62,,,,,,,
2987.78,-0.0,-53.06,,,,,,,
2987.8,-2e-05,-54.62,,,,,,,
2987.82,-4e-05,-57.21,,,,,,,
2987.84,-7e-05,-59.91,,,,,,,
2987.87,-9e-05,-62.56,,,,,,,
2987.88,-0.00011,-63.81,,,,,,,
2987.9,-0.00012,-65.19,,,,,,,
2987.92,-0.00014,-67.74,,,,,,,
2987.94,-0.00017,-70.3,,,,,,,
2987.97,-0.00019,-72.86,,,,,,,
2987.98,-0.00021,-74.1,,,,,,,
2988.0,-0.00022,-75.43,,,,,,,
2988.02,-0.00025,-77.75,,,,,,,
2988.05,-0.00027,-80.15,,,,,,,
2988.07,-0.0003,-82.5,,,,,,,
2988.08,-0.0003,-83.42,,,,,,,
2988.1,-0.00032,-84.94,,,,,,,
2988.12,-0.00035,-87.56,,,,,,,
2988.15,-0.00037,-89.93,,,,,,,
2988.17,-0.0004,-92.31,,,,,,,
2988.18,-0.00041,-93.36,,,,,,,
2988.2,-0.00042,-94.59,,,,,,,
2988.22,-0.00045,-96.91,,,,,,,
2988.25,-0.00047,-99.2,,,,,,,
2988.27,-0.0005,-101.4,,,,,,,
2988.28,-0.00051,-102.2,,,,,,,
2988.3,-0.00052,-103.6,,,,,,,
2988.32,-0.00055,-105.8,,,,,,,
2988.35,-0.00057,-107.7,,,,,,,
2988.36,-0.0006,-109.2,,,,,,,
2988.38,-0.00061,-110.0,,,,,,,
2988.39,-0.00062,-110.7,,,,,,,
2988.42,-0.00065,-112.8,,,,,,,
2988.45,-0.00067,-115.0,,,,,,,
2988.47,-0.0007,-117.0,,,,,,,
2988.48,-0.00071,-117.6,,,,,,,
2988.5,-0.00072,-119.0,,,,,,,
2988.53,-0.00075,-121.2,,,,,,,
2988.55,-0.00078,-123.2,,,,,,,
2988.58,-0.0008,-125.2,,,,,,,
2988.58,-0.0008,-125.5,,,,,,,
2988.6,-0.00083,-127.3,,,,,,,
2988.63,-0.00085,-129.3,,,,,,,
2988.65,-0.00088,-131.3,,,,,,,
2988.68,-0.0009,-133.0,,,,,,,
2988.68,-0.0009,-133.2,,,,,,,
2988.7,-0.00093,-135.0,,,,,,,
2988.73,-0.00095,-137.0,,,,,,,
2988.76,-0.00098,-138.8,,,,,,,
2988.78,-0.001,-140.6,,,,,,,
2988.78,-0.001,-140.7,,,,,,,
2988.81,-0.00103,-142.5,,,,,,,
2988.83,-0.00105,-144.4,,,,,,,
2988.86,-0.00108,-146.2,,,,,,,
2988.88,-0.0011,-147.7,,,,,,,
2988.88,-0.0011,-147.7,,,,,,,
2988.91,-0.00113,-149.5,,,,,,,
2988.93,-0.00115,-151.4,,,,,,,
2988.96,-0.00118,-153.2,,,,,,,
2988.98,-0.0012,-154.5,,,,,,,
2988.98,-0.0012,-154.7,,,,,,,
2989.01,-0.00123,-156.1,,,,,,,
2989.03,-0.00125,-157.7,,,,,,,
2989.05,-0.00128,-159.2,,,,,,,
2989.08,-0.0013,-160.3,,,,,,,
2989.08,-0.0013,-160.4,,,,,,,
2989.1,-0.00133,-161.7,,,,,,,
2989.13,-0.00135,-163.0,,,,,,,
2989.15,-0.00138,-164.1,,,,,,,
2989.18,-0.0014,-164.9,,,,,,,
2989.18,-0.00141,-164.9,,,,,,,
2989.21,-0.00143,-164.6,,,,,,,
2989.28,-0.00142,-155.3,,,,,,,
2989.3,-0.0014,-151.0,,,,,,,
2989.33,-0.00138,-145.2,,,,,,,
2989.36,-0.00135,-139.8,,,,,,,
2989.38,-0.00134,-136.4,,,,,,,
2989.39,-0.00133,-134.7,,,,,,,
2989.41,-0.0013,-129.8,,,,,,,
2989.44,-0.00128,-125.6,,,,,,,
2989.46,-0.00125,-120.9,,,,,,,
2989.48,-0.00124,-118.9,,,,,,,
2989.49,-0.00123,-116.7,,,,,,,
2989.51,-0.0012,-112.7,,,,,,,
2989.54,-0.00118,-108.5,,,,,,,
2989.57,-0.00115,-104.5,,,,,,,
2989.58,-0.00114,-103.0,,,,,,,
2989.59,-0.00113,-100.4,,,,,,,
2989.62,-0.0011,-96.28,,,,,,,
2989.65,-0.00108,-92.48,,,,,,,
2989.67,-0.00105,-88.65,,,,,,,
2989.68,-0.00105,-88.11,,,,,,,
2989.7,-0.00103,-84.95,,,,,,,
2989.73,-0.001,-81.18,,,,,,,
2989.75,-0.00098,-77.55,,,,,,,
2989.78,-0.00095,-74.11,,,,,,,
2989.78,-0.00095,-73.91,,,,,,,
2989.81,-0.00092,-70.33,,,,,,,
2989.83,-0.0009,-66.65,,,,,,,
2989.86,-0.00087,-63.13,,,,,,,
2989.88,-0.00086,-60.65,,,,,,,
2989.88,-0.00085,-59.46,,,,,,,
2989.91,-0.00082,-55.83,,,,,,,
2989.94,-0.0008,-52.57,,,,,,,
2989.96,-0.00077,-48.89,,,,,,,
2989.97,-0.00076,-47.47,,,,,,,
2989.99,-0.00075,-45.24,,,,,,,
2990.02,-0.00072,-41.62,,,,,,,
2990.04,-0.0007,-38.31,,,,,,,
2990.07,-0.00067,-34.98,,,,,,,
2990.07,-0.00067,-34.3,,,,,,,
2990.1,-0.00065,-31.39,,,,,,,
2990.12,-0.00062,-28.11,,,,,,,
2990.15,-0.0006,-24.96,,,,,,,
2990.17,-0.00057,-22.3,,,,,,,
2990.17,-0.00056,-21.59,,,,,,,
2990.19,-0.00055,-19.34,,,,,,,
2990.22,-0.00052,-16.12,,,,,,,
2990.25,-0.0005,-12.76,,,,,,,
2990.27,-0.00047,-10.07,,,,,,,
2990.28,-0.00047,-9.52,,,,,,,
2990.31,-0.00045,-6.27,,,,,,,
2990.33,-0.00042,-3.01,,,,,,,
2990.36,-0.00039,0.55,,,,,,,
2990.37,-0.00038,2.16,,,,,,,
2990.39,-0.00037,3.87,,,,,,,
2990.41,-0.00034,7.12,,,,,,,
2990.44,-0.00032,10.51,,,,,,,
2990.47,-0.00029,13.28,,,,,,,
2990.47,-0.00029,13.8,,,,,,,
2990.5,-0.00027,16.2,,,,,,,
2990.53,-0.00024,19.1,,,,,,,
2990.57,-0.00022,22.14,,,,,,,
2990.57,-0.00021,22.82,,,,,,,
2990.59,-0.00019,25.08,,,,,,,
2990.62,-0.00017,28.12,,,,,,,
2990.65,-0.00014,31.27,,,,,,,
2990.67,-0.00012,33.44,,,,,,,
2990.68,-0.00012,34.2,,,,,,,
2990.71,-9e-05,37.12,,,,,,,
2990.73,-7e-05,40.17,,,,,,,
2990.76,-4e-05,42.89,,,,,,,
2990.77,-3e-05,44.16,,,,,,,
2990.79,-2e-05,45.82,,,,,,,
2990.81,1e-05,48.78,,,,,,,
2990.84,3e-05,51.66,,,,,,,
2990.86,6e-05,54.28,,,,,,,
2990.87,7e-05,55.35,,,,,,,
2990.89,8e-05,57.15,,,,,,,
2990.91,0.00011,60.0,,,,,,,
2990.93,0.00013,62.97,,,,,,,
2990.95,0.00016,65.87,,,,,,,
2990.97,0.00018,68.08,,,,,,,
2990.98,0.00019,68.81,,,,,,,
2991.0,0.00021,71.67,,,,,,,
2991.02,0.00024,74.49,,,,,,,
2991.05,0.00026,77.21,,,,,,,
2991.07,0.00029,79.59,,,,,,,
2991.1,0.00031,82.17,,,,,,,
2991.12,0.00034,84.56,,,,,,,
2991.15,0.00036,86.94,,,,,,,
2991.17,0.00039,89.17,,,,,,,
2991.17,0.00039,89.47,,,,,,,
2991.2,0.00041,91.71,,,,,,,
2991.22,0.00044,94.09,,,,,,,
2991.25,0.00046,96.29,,,,,,,
2991.27,0.00048,98.23,,,,,,,
2991.28,0.00049,98.85,,,,,,,
2991.3,0.00051,101.06,,,,,,,
2991.33,0.00054,103.36,,,,,,,
2991.35,0.00056,105.7,,,,,,,
2991.37,0.00058,107.23,,,,,,,
2991.38,0.00059,107.94,,,,,,,
2991.4,0.00062,110.07,,,,,,,
2991.43,0.00064,112.09,,,,,,,
2991.46,0.00067,114.25,,,,,,,
2991.47,0.00068,115.18,,,,,,,
2991.48,0.00069,116.4,,,,,,,
2991.5,0.00072,117.89,,,,,,,
2991.53,0.00074,119.63,,,,,,,
2991.55,0.00077,121.74,,,,,,,
2991.57,0.00078,123.02,,,,,,,
2991.58,0.00079,123.8,,,,,,,
2991.61,0.00082,125.68,,,,,,,
2991.63,0.00084,127.86,,,,,,,
2991.66,0.00087,129.76,,,,,,,
2991.67,0.00088,130.7,,,,,,,
2991.68,0.00089,131.77,,,,,,,
2991.7,0.00092,133.61,,,,,,,
2991.73,0.00094,135.48,,,,,,,
2991.76,0.00097,137.32,,,,,,,
2991.77,0.00098,138.28,,,,,,,
2991.78,0.00099,139.17,,,,,,,
2991.81,0.00102,141.05,,,,,,,
2991.83,0.00104,142.75,,,,,,,
2991.85,0.00107,144.49,,,,,,,
2991.87,0.00108,145.41,,,,,,,
2991.88,0.0011,146.04,,,,,,,
2991.9,0.00112,147.86,,,,,,,
2991.93,0.00115,149.29,,,,,,,
2991.95,0.00117,150.77,,,,,,,
2991.97,0.00119,151.67,,,,,,,
2991.98,0.0012,152.28,,,,,,,
2992.0,0.00122,153.75,,,,,,,
2992.03,0.00125,155.09,,,,,,,
2992.05,0.00127,156.16,,,,,,,
2992.07,0.00129,156.95,,,,,,,
2992.07,0.0013,157.25,,,,,,,
2992.1,0.00132,158.23,,,,,,,
2992.12,0.00135,159.22,,,,,,,
2992.15,0.00137,160.3,,,,,,,
2992.17,0.00139,160.89,,,,,,,
5989.13,0.00141,161.6,,,,,,,
5989.16,0.00143,161.26,,,,,,,
5989.21,0.00143,154.28,,,,,,,
5989.25,0.00141,147.05,,,,,,,
5989.29,0.00138,140.63,,,,,,,
5989.31,0.00136,135.7,,,,,,,
5989.31,0.00136,135.36,,,,,,,
5989.34,0.00133,130.67,,,,,,,
5989.36,0.00131,125.93,,,,,,,
5989.39,0.00128,121.38,,,,,,,
5989.41,0.00126,117.49,,,,,,,
5989.42,0.00126,116.97,,,,,,,
5989.44,0.00123,112.83,,,,,,,
5989.46,0.00121,108.79,,,,,,,
5989.49,0.00118,104.65,,,,,,,
5989.51,0.00116,101.38,,,,,,,
5989.51,0.00115,100.94,,,,,,,
5989.54,0.00113,96.86,,,,,,,
5989.57,0.0011,93.12,,,,,,,
5989.6,0.00108,89.21,,,,,,,
5989.61,0.00106,86.77,,,,,,,
5989.62,0.00105,85.34,,,,,,,
5989.65,0.00103,81.65,,,,,,,
5989.67,0.001,78.07,,,,,,,
5989.7,0.00098,74.48,,,,,,,
5989.71,0.00097,72.84,,,,,,,
5989.73,0.00095,70.7,,,,,,,
5989.75,0.00093,66.87,,,,,,,
5989.78,0.0009,63.26,,,,,,,
5989.81,0.00088,59.84,,,,,,,
5989.81,0.00087,59.23,,,,,,,
5989.83,0.00085,56.54,,,,,,,
5989.86,0.00083,52.89,,,,,,,
5989.89,0.0008,49.3,,,,,,,
5989.91,0.00078,46.12,,,,,,,
5989.91,0.00078,45.83,,,,,,,
5989.94,0.00075,42.37,,,,,,,
5989.97,0.00073,39.07,,,,,,,
5989.99,0.0007,36.48,,,,,,,
5990.01,0.00067,33.53,,,,,,,
5990.01,0.00067,33.48,,,,,,,
5990.04,0.00065,30.19,,,,,,,
5990.07,0.00062,26.66,,,,,,,
5990.1,0.0006,23.2,,,,,,,
5990.11,0.00059,21.59,,,,,,,
5990.13,0.00057,19.69,,,,,,,
5990.15,0.00055,16.51,,,,,,,
5990.18,0.00052,13.01,,,,,,,
5990.21,0.0005,9.77,,,,,,,
5990.24,0.00047,6.65,,,,,,,
5990.28,0.00045,3.47,,,,,,,
5990.31,0.00042,0.11,,,,,,,
5990.34,0.0004,-3.18,,,,,,,
5990.37,0.00037,-6.21,,,,,,,
5990.4,0.00035,-9.7,,,,,,,
5990.41,0.00033,-11.2,,,,,,,
5990.42,0.00032,-12.86,,,,,,,
5990.45,0.0003,-15.8,,,,,,,
5990.47,0.00027,-18.74,,,,,,,
5990.5,0.00025,-21.96,,,,,,,
5990.51,0.00024,-22.89,,,,,,,
5990.52,0.00022,-24.99,,,,,,,
5990.55,0.0002,-28.14,,,,,,,
5990.58,0.00017,-31.24,,,,,,,
5990.6,0.00015,-34.4,,,,,,,
5990.61,0.00014,-35.53,,,,,,,
5990.62,0.00012,-37.64,,,,,,,
5990.64,0.0001,-40.59,,,,,,,
5990.66,7e-05,-43.56,,,,,,,
5990.69,4e-05,-46.58,,,,,,,
5990.71,2e-05,-49.24,,,,,,,
5990.71,2e-05,-49.63,,,,,,,
5990.73,-1e-05,-52.56,,,,,,,
5990.76,-3e-05,-55.53,,,,,,,
5990.78,-6e-05,-58.11,,,,,,,
5990.81,-8e-05,-60.59,,,,,,,
5990.81,-8e-05,-60.71,,,,,,,
5990.83,-0.00011,-63.31,,,,,,,
5990.86,-0.00013,-66.01,,,,,,,
5990.88,-0.00016,-68.52,,,,,,,
5990.91,-0.00018,-70.73,,,,,,,
5990.91,-0.00018,-71.13,,,,,,,
5990.94,-0.00021,-73.51,,,,,,,
5990.96,-0.00023,-76.16,,,,,,,
5990.99,-0.00026,-78.75,,,,,,,
5991.01,-0.00028,-80.33,,,,,,,
5991.01,-0.00029,-81.18,,,,,,,
5991.04,-0.00031,-83.71,,,,,,,
5991.06,-0.00034,-86.08,,,,,,,
5991.09,-0.00036,-88.69,,,,,,,
5991.11,-0.00038,-90.31,,,,,,,
5991.11,-0.00039,-91.1,,,,,,,
5991.14,-0.00041,-93.47,,,,,,,
5991.16,-0.00044,-95.52,,,,,,,
5991.19,-0.00046,-97.91,,,,,,,
5991.21,-0.00048,-99.52,,,,,,,
5991.21,-0.00049,-100.2,,,,,,,
5991.24,-0.00051,-102.5,,,,,,,
5991.26,-0.00054,-104.5,,,,,,,
5991.29,-0.00056,-106.6,,,,,,,
5991.3,-0.00059,-108.0,,,,,,,
5991.31,-0.00059,-108.1,,,,,,,
5991.33,-0.00061,-109.8,,,,,,,
5991.36,-0.00064,-111.7,,,,,,,
5991.39,-0.00066,-113.8,,,,,,,
5991.4,-0.00068,-115.1,,,,,,,
5991.41,-0.00069,-115.7,,,,,,,
5991.44,-0.00071,-117.6,,,,,,,
5991.47,-0.00074,-119.7,,,,,,,
5991.49,-0.00077,-121.8,,,,,,,
5991.5,-0.00078,-122.6,,,,,,,
5991.52,-0.00079,-123.7,,,,,,,
5991.55,-0.00082,-126.0,,,,,,,
5991.57,-0.00084,-128.2,,,,,,,
5991.6,-0.00087,-130.1,,,,,,,
5991.6,-0.00087,-130.6,,,,,,,
5991.62,-0.00089,-132.1,,,,,,,
5991.65,-0.00092,-134.1,,,,,,,
5991.68,-0.00094,-136.0,,,,,,,
5991.7,-0.00097,-138.1,,,,,,,
5991.7,-0.00097,-138.2,,,,,,,
5991.73,-0.00099,-140.0,,,,,,,
5991.75,-0.00102,-141.7,,,,,,,
5991.78,-0.00104,-143.7,,,,,,,
5991.8,-0.00107,-145.4,,,,,,,
5991.8,-0.00107,-145.6,,,,,,,
5991.83,-0.00109,-147.2,,,,,,,
5991.85,-0.00112,-149.0,,,,,,,
5991.88,-0.00114,-150.7,,,,,,,
5991.9,-0.00117,-152.5,,,,,,,
5991.9,-0.00117,-152.5,,,,,,,
5991.93,-0.00119,-153.9,,,,,,,
5991.95,-0.00122,-155.5,,,,,,,
5991.98,-0.00125,-157.1,,,,,,,
5992.0,-0.00127,-158.4,,,,,,,
5992.0,-0.00127,-158.5,,,,,,,
5992.03,-0.0013,-159.7,,,,,,,
5992.05,-0.00132,-161.0,,,,,,,
5992.07,-0.00135,-162.3,,,,,,,
5992.1,-0.00137,-163.5,,,,,,,
5992.1,-0.00138,-163.8,,,,,,,
5992.12,-0.0014,-164.6,,,,,,,
5992.15,-0.00142,-165.1,,,,,,,
5992.2,-0.00143,-160.1,,,,,,,
5992.26,-0.0014,-149.9,,,,,,,
5992.29,-0.00137,-144.0,,,,,,,
5992.3,-0.00136,-141.7,,,,,,,
5992.32,-0.00135,-138.8,,,,,,,
5992.34,-0.00132,-134.2,,,,,,,
5992.37,-0.0013,-129.4,,,,,,,
5992.39,-0.00127,-125.0,,,,,,,
5992.4,-0.00126,-123.7,,,,,,,
5992.42,-0.00125,-120.2,,,,,,,
5992.45,-0.00122,-116.0,,,,,,,
5992.47,-0.0012,-112.0,,,,,,,
5992.5,-0.00117,-107.9,,,,,,,
5992.5,-0.00117,-107.4,,,,,,,
5992.52,-0.00114,-103.9,,,,,,,
5992.55,-0.00112,-100.0,,,,,,,
5992.58,-0.00109,-96.01,,,,,,,
5992.6,-0.00107,-92.64,,,,,,,
5992.6,-0.00107,-92.12,,,,,,,
5992.63,-0.00104,-88.54,,,,,,,
5992.65,-0.00102,-84.85,,,,,,,
5992.68,-0.00099,-81.1,,,,,,,
5992.7,-0.00098,-78.68,,,,,,,
5992.71,-0.00097,-77.45,,,,,,,
5992.73,-0.00094,-73.75,,,,,,,
5992.76,-0.00092,-69.97,,,,,,,
5992.79,-0.00089,-66.48,,,,,,,
5992.8,-0.00088,-65.28,,,,,,,
5992.82,-0.00087,-62.82,,,,,,,
5992.84,-0.00084,-59.23,,,,,,,
5992.87,-0.00082,-55.55,,,,,,,
5992.9,-0.00079,-52.05,,,,,,,
5992.9,-0.00079,-51.83,,,,,,,
5992.92,-0.00077,-48.42,,,,,,,
5992.95,-0.00074,-44.58,,,,,,,
5992.98,-0.00072,-41.28,,,,,,,
5993.0,-0.00069,-38.32,,,,,,,
5993.0,-0.00069,-37.67,,,,,,,
5993.03,-0.00066,-34.27,,,,,,,
5993.05,-0.00064,-30.88,,,,,,,
5993.08,-0.00061,-27.46,,,,,,,
5993.1,-0.0006,-25.45,,,,,,,
5993.1,-0.00059,-24.67,,,,,,,
5993.13,-0.00056,-22.16,,,,,,,
5993.15,-0.00054,-19.11,,,,,,,
5993.18,-0.00051,-15.44,,,,,,,
5993.2,-0.0005,-13.87,,,,,,,
5993.21,-0.00049,-12.48,,,,,,,
5993.24,-0.00046,-9.09,,,,,,,
5993.27,-0.00044,-5.75,,,,,,,
5993.29,-0.00041,-2.24,,,,,,,
5993.3,-0.00041,-1.94,,,,,,,
5993.32,-0.00039,0.88,,,,,,,
5993.35,-0.00036,4.31,,,,,,,
5993.37,-0.00034,7.49,,,,,,,
5993.4,-0.00032,10.21,,,,,,,
5993.4,-0.00031,10.81,,,,,,,
5993.43,-0.00029,13.87,,,,,,,
5993.46,-0.00026,16.9,,,,,,,
5993.5,-0.00024,19.93,,,,,,,
5993.5,-0.00024,20.06,,,,,,,
5993.53,-0.00021,23.02,,,,,,,
5993.56,-0.00019,25.96,,,,,,,
5993.58,-0.00016,28.92,,,,,,,
5993.6,-0.00015,30.32,,,,,,,
5993.61,-0.00013,32.04,,,,,,,
5993.64,-0.00011,35.06,,,,,,,
5993.67,-8e-05,38.12,,,,,,,
5993.69,-6e-05,40.97,,,,,,,
5993.7,-6e-05,41.3,,,,,,,
5993.72,-3e-05,44.02,,,,,,,
5993.75,-1e-05,47.22,,,,,,,
5993.77,2e-05,49.94,,,,,,,
5993.8,4e-05,52.46,,,,,,,
5993.8,4e-05,53.17,,,,,,,
5993.83,7e-05,56.09,,,,,,,
5993.85,9e-05,59.06,,,,,,,
5993.87,0.00012,61.84,,,,,,,
5993.89,0.00014,64.65,,,,,,,
5993.89,0.00015,65.17,,,,,,,
5993.91,0.00017,67.45,,,,,,,
5993.93,0.00019,70.22,,,,,,,
5993.96,0.00022,72.75,,,,,,,
5993.98,0.00024,75.44,,,,,,,
5993.99,0.00026,77.01,,,,,,,
5994.0,0.00027,77.99,,,,,,,
5994.03,0.00029,80.6,,,,,,,
5994.05,0.00032,82.97,,,,,,,
5994.08,0.00035,85.48,,,,,,,
5994.09,0.00036,86.81,,,,,,,
5994.11,0.00037,87.97,,,,,,,
5994.13,0.0004,90.49,,,,,,,
5994.16,0.00042,92.79,,,,,,,
5994.18,0.00045,95.08,,,,,,,
5994.19,0.00046,96.03,,,,,,,
5994.21,0.00047,97.45,,,,,,,
5994.24,0.0005,99.77,,,,,,,
5994.26,0.00052,101.97,,,,,,,
5994.29,0.00055,104.32,,,,,,,
5994.29,0.00055,104.84,,,,,,,
5994.31,0.00057,106.54,,,,,,,
5994.34,0.0006,108.79,,,,,,,
5994.36,0.00062,110.88,,,,,,,
5994.39,0.00065,113.03,,,,,,,
5994.39,0.00065,113.25,,,,,,,
5994.42,0.00067,115.34,,,,,,,
5994.44,0.0007,117.24,,,,,,,
5994.46,0.00072,118.69,,,,,,,
5994.49,0.00075,120.52,,,,,,,
5994.49,0.00075,120.9,,,,,,,
5994.51,0.00077,122.67,,,,,,,
5994.54,0.0008,124.56,,,,,,,
5994.57,0.00083,126.67,,,,,,,
5994.59,0.00085,128.38,,,,,,,
5994.59,0.00085,128.58,,,,,,,
5994.62,0.00088,130.52,,,,,,,
5994.64,0.0009,132.3,,,,,,,
5994.67,0.00093,134.26,,,,,,,
5994.69,0.00095,136.09,,,,,,,
5994.69,0.00095,136.21,,,,,,,
5994.72,0.00098,137.97,,,,,,,
5994.74,0.001,139.93,,,,,,,
5994.77,0.00103,141.75,,,,,,,
5994.79,0.00105,143.53,,,,,,,
5994.79,0.00105,143.61,,,,,,,
5994.81,0.00108,145.27,,,,,,,
5994.84,0.0011,146.92,,,,,,,
5994.86,0.00113,148.59,,,,,,,
5994.89,0.00115,150.33,,,,,,,
5994.89,0.00116,150.45,,,,,,,
5994.91,0.00118,151.87,,,,,,,
5994.94,0.0012,153.23,,,,,,,
5994.96,0.00123,154.66,,,,,,,
5994.99,0.00125,156.03,,,,,,,
5994.99,0.00126,156.16,,,,,,,
5995.01,0.00128,157.23,,,,,,,
5995.04,0.00131,158.48,,,,,,,
5995.06,0.00133,159.67,,,,,,,
5995.08,0.00136,160.7,,,,,,,
5995.09,0.00136,160.96,,,,,,,
5995.11,0.00138,161.68,,,,,,,
11995.04,0.00142,162.08,,,,,,,
11995.06,0.00143,161.58,,,,,,,
11995.16,0.00141,146.95,,,,,,,
11995.18,0.00139,143.74,,,,,,,
11995.21,0.00137,138.4,,,,,,,
11995.23,0.00134,133.28,,,,,,,
11995.26,0.00132,128.46,,,,,,,
11995.26,0.00131,128.09,,,,,,,
11995.28,0.00129,123.62,,,,,,,
11995.31,0.00127,119.2,,,,,,,
11995.34,0.00124,114.82,,,,,,,
11995.36,0.00122,110.98,,,,,,,
11995.36,0.00122,110.44,,,,,,,
11995.39,0.00119,106.36,,,,,,,
11995.41,0.00117,102.38,,,,,,,
11995.44,0.00114,98.44,,,,,,,
11995.46,0.00112,95.41,,,,,,,
11995.47,0.00112,94.15,,,,,,,
11995.49,0.00109,90.3,,,,,,,
11995.52,0.00106,86.36,,,,,,,
11995.55,0.00104,82.76,,,,,,,
11995.56,0.00103,80.81,,,,,,,
11995.57,0.00101,79.12,,,,,,,
11995.6,0.00099,75.42,,,,,,,
11995.62,0.00096,71.86,,,,,,,
11995.65,0.00094,67.9,,,,,,,
11995.66,0.00093,66.95,,,,,,,
11995.68,0.00091,64.4,,,,,,,
11995.7,0.00089,60.95,,,,,,,
11995.73,0.00086,57.34,,,,,,,
11995.76,0.00084,53.92,,,,,,,
11995.76,0.00083,53.61,,,,,,,
11995.78,0.00081,50.26,,,,,,,
11995.81,0.00079,46.94,,,,,,,
11995.84,0.00076,43.34,,,,,,,
11995.86,0.00074,40.48,,,,,,,
11995.86,0.00074,39.74,,,,,,,
11995.89,0.00071,36.96,,,,,,,
11995.91,0.00069,34.43,,,,,,,
11995.94,0.00066,31.04,,,,,,,
11995.96,0.00064,28.31,,,,,,,
11995.96,0.00064,27.55,,,,,,,
11995.99,0.00061,24.0,,,,,,,
11996.02,0.00059,20.83,,,,,,,
11996.05,0.00056,17.42,,,,,,,
11996.06,0.00055,16.4,,,,,,,
11996.08,0.00053,14.2,,,,,,,
11996.1,0.00051,10.99,,,,,,,
11996.14,0.00048,7.86,,,,,,,
11996.16,0.00047,6.07,,,,,,,
11996.17,0.00046,4.73,,,,,,,
11996.2,0.00043,1.53,,,,,,,
11996.23,0.00041,-1.79,,,,,,,
11996.26,0.00039,-4.18,,,,,,,
11996.26,0.00038,-4.96,,,,,,,
11996.29,0.00036,-8.13,,,,,,,
11996.32,0.00033,-11.33,,,,,,,
11996.34,0.00031,-14.41,,,,,,,
11996.36,0.0003,-15.72,,,,,,,
11996.37,0.00028,-17.39,,,,,,,
11996.4,0.00026,-20.37,,,,,,,
11996.42,0.00023,-23.4,,,,,,,
11996.45,0.00021,-26.51,,,,,,,
11996.46,0.0002,-27.37,,,,,,,
11996.47,0.00018,-29.47,,,,,,,
11996.5,0.00016,-32.79,,,,,,,
11996.52,0.00013,-35.55,,,,,,,
11996.54,0.00011,-38.75,,,,,,,
11996.56,9e-05,-40.71,,,,,,,
11996.56,8e-05,-41.82,,,,,,,
11996.58,6e-05,-44.67,,,,,,,
11996.61,3e-05,-47.48,,,,,,,
11996.63,0.0,-50.37,,,,,,,
11996.65,-2e-05,-53.25,,,,,,,
11996.68,-5e-05,-56.05,,,,,,,
11996.7,-7e-05,-58.54,,,,,,,
11996.73,-0.0001,-61.41,,,,,,,
11996.75,-0.00012,-63.92,,,,,,,
11996.75,-0.00012,-63.97,,,,,,,
11996.78,-0.00015,-66.62,,,,,,,
11996.81,-0.00017,-69.22,,,,,,,
11996.83,-0.0002,-71.71,,,,,,,
11996.85,-0.00022,-73.75,,,,,,,
11996.86,-0.00022,-74.22,,,,,,,
11996.88,-0.00025,-76.65,,,,,,,
11996.91,-0.00027,-79.29,,,,,,,
11996.93,-0.0003,-81.81,,,,,,,
11996.95,-0.00032,-83.73,,,,,,,
11996.96,-0.00032,-84.04,,,,,,,
11996.98,-0.00035,-86.53,,,,,,,
11997.01,-0.00037,-88.94,,,,,,,
11997.03,-0.0004,-91.54,,,,,,,
11997.05,-0.00042,-93.18,,,,,,,
11997.06,-0.00042,-93.67,,,,,,,
11997.08,-0.00045,-95.94,,,,,,,
11997.11,-0.00047,-98.26,,,,,,,
11997.13,-0.0005,-100.5,,,,,,,
11997.15,-0.00052,-102.1,,,,,,,
11997.16,-0.00053,-102.8,,,,,,,
11997.18,-0.00055,-104.7,,,,,,,
11997.21,-0.00058,-106.6,,,,,,,
11997.23,-0.0006,-108.1,,,,,,,
11997.25,-0.00063,-109.7,,,,,,,
11997.25,-0.00063,-109.8,,,,,,,
11997.28,-0.00065,-111.8,,,,,,,
11997.31,-0.00068,-113.8,,,,,,,
11997.34,-0.0007,-115.8,,,,,,,
11997.35,-0.00072,-117.1,,,,,,,
11997.36,-0.00073,-117.7,,,,,,,
11997.39,-0.00075,-119.8,,,,,,,
11997.41,-0.00078,-121.9,,,,,,,
11997.44,-0.0008,-123.7,,,,,,,
11997.45,-0.00082,-124.8,,,,,,,
11997.46,-0.00083,-125.7,,,,,,,
11997.49,-0.00085,-127.7,,,,,,,
11997.52,-0.00088,-129.7,,,,,,,
11997.54,-0.0009,-131.8,,,,,,,
11997.55,-0.00091,-132.3,,,,,,,
11997.57,-0.00093,-133.8,,,,,,,
11997.6,-0.00095,-135.8,,,,,,,
11997.62,-0.00098,-137.6,,,,,,,
11997.65,-0.001,-139.5,,,,,,,
11997.65,-0.00101,-139.9,,,,,,,
11997.67,-0.00103,-141.4,,,,,,,
11997.7,-0.00106,-143.3,,,,,,,
11997.72,-0.00108,-145.0,,,,,,,
11997.75,-0.00111,-146.8,,,,,,,
11997.75,-0.00111,-147.0,,,,,,,
11997.77,-0.00113,-148.7,,,,,,,
11997.8,-0.00116,-150.5,,,,,,,
11997.82,-0.00118,-152.2,,,,,,,
11997.85,-0.00121,-153.7,,,,,,,
11997.85,-0.00121,-154.0,,,,,,,
11997.87,-0.00123,-155.3,,,,,,,
11997.9,-0.00126,-156.8,,,,,,,
11997.92,-0.00128,-158.1,,,,,,,
11997.95,-0.00131,-159.5,,,,,,,
11997.95,-0.00131,-159.6,,,,,,,
11997.97,-0.00133,-160.7,,,,,,,
11997.99,-0.00136,-161.8,,,,,,,
11998.02,-0.00138,-163.0,,,,,,,
11998.04,-0.00141,-164.0,,,,,,,
11998.05,-0.00142,-164.0,,,,,,,
11998.09,-0.00143,-162.0,,,,,,,
11998.15,-0.00141,-152.1,,,,,,,
11998.15,-0.00141,-151.7,,,,,,,
11998.18,-0.00138,-145.5,,,,,,,
11998.21,-0.00136,-140.6,,,,,,,
11998.23,-0.00133,-135.7,,,,,,,
11998.25,-0.00132,-133.1,,,,,,,
11998.26,-0.00131,-130.9,,,,,,,
11998.29,-0.00128,-126.2,,,,,,,
11998.31,-0.00126,-121.7,,,,,,,
11998.34,-0.00123,-117.3,,,,,,,
11998.35,-0.00123,-116.1,,,,,,,
11998.37,-0.00121,-113.3,,,,,,,
11998.39,-0.00118,-109.1,,,,,,,
11998.42,-0.00116,-105.0,,,,,,,
11998.44,-0.00113,-101.1,,,,,,,
11998.45,-0.00113,-100.6,,,,,,,
11998.47,-0.00111,-96.75,,,,,,,
11998.5,-0.00108,-93.02,,,,,,,
11998.53,-0.00106,-88.97,,,,,,,
11998.55,-0.00103,-85.71,,,,,,,
11998.55,-0.00103,-85.31,,,,,,,
11998.58,-0.00101,-81.51,,,,,,,
11998.6,-0.00098,-77.81,,,,,,,
11998.63,-0.00095,-74.45,,,,,,,
11998.65,-0.00094,-71.93,,,,,,,
11998.66,-0.00093,-70.53,,,,,,,
11998.68,-0.0009,-67.1,,,,,,,
11998.71,-0.00088,-63.51,,,,,,,
11998.74,-0.00085,-59.96,,,,,,,
11998.75,-0.00084,-58.57,,,,,,,
11998.76,-0.00083,-56.5,,,,,,,
11998.79,-0.0008,-52.79,,,,,,,
11998.82,-0.00078,-49.5,,,,,,,
11998.84,-0.00075,-45.78,,,,,,,
11998.85,-0.00075,-45.54,,,,,,,
11998.87,-0.00073,-42.09,,,,,,,
11998.9,-0.0007,-38.81,,,,,,,
11998.92,-0.00068,-35.29,,,,,,,
11998.95,-0.00066,-32.39,,,,,,,
11998.95,-0.00065,-31.9,,,,,,,
11998.98,-0.00063,-28.54,,,,,,,
11999.0,-0.0006,-25.24,,,,,,,
11999.02,-0.00058,-22.62,,,,,,,
11999.04,-0.00055,-20.05,,,,,,,
11999.05,-0.00055,-19.95,,,,,,,
11999.07,-0.00053,-16.77,,,,,,,
11999.1,-0.0005,-13.38,,,,,,,
11999.13,-0.00048,-10.02,,,,,,,
11999.15,-0.00046,-8.38,,,,,,,
11999.16,-0.00045,-6.58,,,,,,,
11999.19,-0.00042,-3.45,,,,,,,
11999.21,-0.0004,-0.28,,,,,,,
11999.24,-0.00037,3.15,,,,,,,
11999.24,-0.00037,3.62,,,,,,,
11999.27,-0.00035,6.49,,,,,,,
11999.3,-0.00032,9.79,,,,,,,
11999.32,-0.0003,12.77,,,,,,,
11999.34,-0.00028,14.9,,,,,,,
11999.35,-0.00027,15.78,,,,,,,
11999.39,-0.00025,18.62,,,,,,,
11999.42,-0.00022,21.85,,,,,,,
11999.44,-0.0002,24.17,,,,,,,
11999.45,-0.0002,24.6,,,,,,,
11999.48,-0.00017,27.86,,,,,,,
11999.51,-0.00015,31.0,,,,,,,
11999.53,-0.00012,33.77,,,,,,,
11999.54,-0.00011,34.97,,,,,,,
11999.56,-0.0001,36.9,,,,,,,
11999.59,-7e-05,39.95,,,,,,,
11999.62,-5e-05,42.82,,,,,,,
11999.64,-2e-05,45.86,,,,,,,
11999.64,-2e-05,46.04,,,,,,,
11999.67,0.0,49.02,,,,,,,
11999.69,3e-05,51.84,,,,,,,
11999.72,5e-05,54.85,,,,,,,
11999.74,8e-05,57.49,,,,,,,
11999.74,8e-05,57.66,,,,,,,
11999.77,0.00011,60.67,,,,,,,
11999.79,0.00013,63.44,,,,,,,
11999.81,0.00016,66.45,,,,,,,
11999.83,0.00018,69.04,,,,,,,
11999.84,0.00019,70.55,,,,,,,
11999.85,0.00021,71.66,,,,,,,
11999.88,0.00023,74.28,,,,,,,
11999.9,0.00026,76.83,,,,,,,
11999.92,0.00028,79.52,,,,,,,
11999.94,0.0003,81.32,,,,,,,
11999.95,0.00031,81.96,,,,,,,
11999.98,0.00033,84.47,,,,,,,
12000.0,0.00036,86.89,,,,,,,
12000.03,0.00038,89.5,,,,,,,
12000.04,0.0004,90.82,,,,,,,
12000.05,0.00041,91.78,,,,,,,
12000.08,0.00043,93.97,,,,,,,
12000.1,0.00046,96.31,,,,,,,
12000.13,0.00048,98.59,,,,,,,
12000.14,0.0005,99.72,,,,,,,
12000.15,0.00051,100.96,,,,,,,
12000.18,0.00053,103.27,,,,,,,
12000.21,0.00056,105.57,,,,,,,
12000.23,0.00058,107.56,,,,,,,
12000.24,0.00059,108.29,,,,,,,
12000.26,0.00061,109.73,,,,,,,
12000.28,0.00063,111.7,,,,,,,
12000.31,0.00066,113.98,,,,,,,
12000.34,0.00068,116.01,,,,,,,
12000.34,0.00069,116.33,,,,,,,
12000.36,0.00071,117.69,,,,,,,
12000.38,0.00074,119.08,,,,,,,
12000.4,0.00076,121.02,,,,,,,
12000.43,0.00079,122.91,,,,,,,
12000.44,0.00079,123.6,,,,,,,
12000.46,0.00081,124.92,,,,,,,
12000.48,0.00084,126.99,,,,,,,
12000.51,0.00086,128.9,,,,,,,
12000.53,0.00089,130.66,,,,,,,
12000.54,0.00089,131.09,,,,,,,
12000.56,0.00091,132.54,,,,,,,
12000.59,0.00094,134.49,,,,,,,
12000.61,0.00096,136.29,,,,,,,
12000.64,0.00099,138.25,,,,,,,
12000.64,0.00099,138.44,,,,,,,
12000.66,0.00101,140.11,,,,,,,
12000.69,0.00104,141.99,,,,,,,
12000.71,0.00106,143.79,,,,,,,
12000.73,0.00109,145.37,,,,,,,
12000.74,0.0011,145.87,,,,,,,
12000.76,0.00111,147.02,,,,,,,
12000.78,0.00114,148.66,,,,,,,
12000.81,0.00116,150.32,,,,,,,
12000.83,0.00119,151.79,,,,,,,
12000.84,0.0012,152.21,,,,,,,
12000.86,0.00121,153.32,,,,,,,
12000.88,0.00124,154.54,,,,,,,
12000.9,0.00126,155.81,,,,,,,
12000.93,0.00129,156.99,,,,,,,
12000.94,0.0013,157.43,,,,,,,
12000.95,0.00132,158.23,,,,,,,
12000.98,0.00134,159.25,,,,,,,
12001.0,0.00137,160.29,,,,,,,
12001.03,0.00139,161.25,,,,,,,
21310.2,0.00141,161.1,,,,,,,
21310.23,0.00143,160.32,,,,,,,
21310.24,0.00143,159.73,,,,,,,
21310.31,0.00141,148.69,,,,,,,
21310.33,0.00139,145.11,,,,,,,
21310.34,0.00138,142.75,,,,,,,
21310.37,0.00136,137.29,,,,,,,
21310.4,0.00133,132.37,,,,,,,
21310.42,0.00131,127.59,,,,,,,
21310.43,0.0013,126.77,,,,,,,
21310.45,0.00128,122.81,,,,,,,
21310.48,0.00126,118.39,,,,,,,
21310.5,0.00123,114.38,,,,,,,
21310.53,0.00121,110.22,,,,,,,
21310.53,0.00121,110.13,,,,,,,
21310.56,0.00118,106.14,,,,,,,
21310.58,0.00116,102.28,,,,,,,
21310.61,0.00113,98.21,,,,,,,
21310.63,0.00111,95.15,,,,,,,
21310.63,0.00111,94.52,,,,,,,
21310.66,0.00108,90.47,,,,,,,
21310.69,0.00106,86.64,,,,,,,
21310.71,0.00103,83.13,,,,,,,
21310.73,0.00102,80.91,,,,,,,
21310.74,0.001,79.3,,,,,,,
21310.76,0.00098,75.91,,,,,,,
21310.79,0.00095,72.02,,,,,,,
21310.82,0.00093,68.61,,,,,,,
21310.83,0.00092,67.24,,,,,,,
21310.85,0.0009,64.91,,,,,,,
21310.87,0.00088,61.61,,,,,,,
21310.9,0.00085,57.97,,,,,,,
21310.93,0.00083,54.25,,,,,,,
21310.93,0.00083,54.05,,,,,,,
21310.95,0.0008,51.1,,,,,,,
21310.98,0.00078,47.55,,,,,,,
21311.0,0.00075,44.07,,,,,,,
21311.03,0.00073,41.16,,,,,,,
21311.03,0.00073,40.79,,,,,,,
21311.05,0.0007,38.27,,,,,,,
21311.08,0.00068,35.39,,,,,,,
21311.11,0.00065,32.11,,,,,,,
21311.13,0.00063,29.56,,,,,,,
21311.14,0.00063,28.65,,,,,,,
21311.16,0.0006,25.28,,,,,,,
21311.19,0.00058,21.88,,,,,,,
21311.22,0.00055,18.78,,,,,,,
21311.23,0.00054,17.58,,,,,,,
21311.25,0.00053,15.39,,,,,,,
21311.28,0.0005,12.07,,,,,,,
21311.3,0.00047,9.04,,,,,,,
21311.33,0.00046,6.96,,,,,,,
21311.34,0.00045,5.84,,,,,,,
21311.37,0.00042,2.69,,,,,,,
21311.4,0.0004,-0.52,,,,,,,
21311.43,0.00038,-2.93,,,,,,,
21311.43,0.00037,-3.85,,,,,,,
21311.46,0.00035,-7.13,,,,,,,
21311.49,0.00032,-10.35,,,,,,,
21311.52,0.0003,-13.5,,,,,,,
21311.53,0.00029,-14.57,,,,,,,
21311.54,0.00027,-16.55,,,,,,,
21311.57,0.00025,-19.79,,,,,,,
21311.6,0.00022,-22.59,,,,,,,
21311.62,0.0002,-25.97,,,,,,,
21311.63,0.00019,-26.27,,,,,,,
21311.65,0.00017,-28.91,,,,,,,
21311.67,0.00015,-31.85,,,,,,,
21311.69,0.00012,-34.85,,,,,,,
21311.72,0.0001,-38.03,,,,,,,
21311.73,9e-05,-39.35,,,,,,,
21311.74,7e-05,-41.14,,,,,,,
21311.76,5e-05,-44.04,,,,,,,
21311.78,2e-05,-46.78,,,,,,,
21311.8,-0.0,-49.9,,,,,,,
21311.82,-3e-05,-52.4,,,,,,,
21311.83,-3e-05,-52.68,,,,,,,
21311.85,-6e-05,-55.47,,,,,,,
21311.88,-8e-05,-58.3,,,,,,,
21311.9,-0.00011,-60.77,,,,,,,
21311.92,-0.00013,-63.2,,,,,,,
21311.93,-0.00013,-63.62,,,,,,,
21311.95,-0.00016,-66.28,,,,,,,
21311.98,-0.00018,-68.9,,,,,,,
21312.0,-0.00021,-71.34,,,,,,,
21312.02,-0.00023,-73.25,,,,,,,
21312.03,-0.00023,-73.84,,,,,,,
21312.06,-0.00026,-76.45,,,,,,,
21312.08,-0.00028,-79.11,,,,,,,
21312.11,-0.00031,-81.64,,,,,,,
21312.12,-0.00033,-83.41,,,,,,,
21312.13,-0.00033,-83.89,,,,,,,
21312.15,-0.00036,-86.42,,,,,,,
21312.18,-0.00038,-88.79,,,,,,,
21312.2,-0.00041,-91.06,,,,,,,
21312.22,-0.00043,-92.8,,,,,,,
21312.23,-0.00043,-93.23,,,,,,,
21312.25,-0.00046,-95.42,,,,,,,
21312.28,-0.00048,-97.53,,,,,,,
21312.3,-0.00051,-99.79,,,,,,,
21312.32,-0.00053,-101.4,,,,,,,
21312.33,-0.00053,-101.8,,,,,,,
21312.35,-0.00056,-103.8,,,,,,,
21312.37,-0.00059,-105.5,,,,,,,
21312.4,-0.00061,-107.1,,,,,,,
21312.42,-0.00063,-108.9,,,,,,,
21312.43,-0.00064,-109.1,,,,,,,
21312.46,-0.00066,-111.1,,,,,,,
21312.48,-0.00069,-113.2,,,,,,,
21312.51,-0.00071,-115.1,,,,,,,
21312.52,-0.00072,-116.3,,,,,,,
21312.54,-0.00074,-117.4,,,,,,,
21312.57,-0.00076,-119.8,,,,,,,
21312.59,-0.00079,-121.9,,,,,,,
21312.62,-0.00081,-124.1,,,,,,,
21312.62,-0.00082,-124.8,,,,,,,
21312.64,-0.00084,-126.5,,,,,,,
21312.67,-0.00086,-128.5,,,,,,,
21312.69,-0.00089,-130.6,,,,,,,
21312.72,-0.00091,-132.6,,,,,,,
21312.72,-0.00092,-133.0,,,,,,,
21312.74,-0.00094,-134.6,,,,,,,
21312.77,-0.00096,-136.5,,,,,,,
21312.79,-0.00099,-138.5,,,,,,,
21312.82,-0.00102,-140.2,,,,,,,
21312.82,-0.00102,-140.5,,,,,,,
21312.85,-0.00104,-142.2,,,,,,,
21312.87,-0.00107,-143.8,,,,,,,
21312.9,-0.00109,-145.7,,,,,,,
21312.92,-0.00111,-147.4,,,,,,,
21312.92,-0.00112,-147.6,,,,,,,
21312.95,-0.00114,-149.4,,,,,,,
21312.97,-0.00117,-151.2,,,,,,,
21313.0,-0.00119,-152.8,,,,,,,
21313.02,-0.00122,-154.4,,,,,,,
21313.02,-0.00122,-154.5,,,,,,,
21313.05,-0.00124,-156.0,,,,,,,
21313.07,-0.00127,-157.5,,,,,,,
21313.1,-0.00129,-158.9,,,,,,,
21313.12,-0.00132,-160.2,,,,,,,
21313.12,-0.00132,-160.2,,,,,,,
21313.15,-0.00134,-161.5,,,,,,,
21313.17,-0.00137,-162.8,,,,,,,
21313.19,-0.00139,-163.9,,,,,,,
21313.22,-0.00142,-164.3,,,,,,,
21313.22,-0.00142,-164.3,,,,,,,
21313.32,-0.0014,-151.1,,,,,,,
21313.33,-0.00139,-149.2,,,,,,,
21313.36,-0.00137,-143.7,,,,,,,
21313.39,-0.00134,-138.5,,,,,,,
21313.41,-0.00132,-134.0,,,,,,,
21313.42,-0.00131,-132.5,,,,,,,
21313.44,-0.00129,-129.2,,,,,,,
21313.46,-0.00127,-124.6,,,,,,,
21313.49,-0.00124,-120.4,,,,,,,
21313.52,-0.00122,-116.0,,,,,,,
21313.52,-0.00122,-115.6,,,,,,,
21313.54,-0.00119,-111.8,,,,,,,
21313.57,-0.00117,-107.5,,,,,,,
21313.59,-0.00114,-103.7,,,,,,,
21313.62,-0.00112,-100.2,,,,,,,
21313.62,-0.00112,-99.44,,,,,,,
21313.65,-0.00109,-95.6,,,,,,,
21313.68,-0.00107,-91.65,,,,,,,
21313.7,-0.00104,-87.75,,,,,,,
21313.72,-0.00103,-85.72,,,,,,,
21313.73,-0.00102,-84.33,,,,,,,
21313.75,-0.00099,-80.41,,,,,,,
21313.78,-0.00097,-76.86,,,,,,,
21313.81,-0.00094,-73.16,,,,,,,
21313.82,-0.00093,-71.68,,,,,,,
21313.83,-0.00092,-69.37,,,,,,,
21313.86,-0.00089,-66.03,,,,,,,
21313.89,-0.00086,-62.44,,,,,,,
21313.91,-0.00084,-58.69,,,,,,,
21313.92,-0.00084,-58.28,,,,,,,
21313.94,-0.00081,-55.21,,,,,,,
21313.97,-0.00079,-51.59,,,,,,,
21313.99,-0.00076,-48.01,,,,,,,
21314.02,-0.00074,-45.17,,,,,,,
21314.02,-0.00074,-44.46,,,,,,,
21314.05,-0.00071,-40.73,,,,,,,
21314.07,-0.00069,-37.53,,,,,,,
21314.1,-0.00066,-33.9,,,,,,,
21314.12,-0.00065,-32.09,,,,,,,
21314.13,-0.00064,-30.64,,,,,,,
21314.15,-0.00061,-27.31,,,,,,,
21314.18,-0.00059,-24.39,,,,,,,
21314.2,-0.00056,-21.8,,,,,,,
21314.22,-0.00055,-19.84,,,,,,,
21314.23,-0.00054,-18.77,,,,,,,
21314.26,-0.00051,-15.31,,,,,,,
21314.28,-0.00049,-11.76,,,,,,,
21314.31,-0.00046,-8.63,,,,,,,
21314.32,-0.00046,-8.01,,,,,,,
21314.34,-0.00044,-5.29,,,,,,,
21314.37,-0.00041,-1.7,,,,,,,
21314.39,-0.00039,1.59,,,,,,,
21314.41,-0.00037,4.16,,,,,,,
21314.42,-0.00036,5.07,,,,,,,
21314.45,-0.00033,8.32,,,,,,,
21314.48,-0.00031,11.5,,,,,,,
21314.5,-0.00028,14.59,,,,,,,
21314.51,-0.00028,15.6,,,,,,,
21314.54,-0.00026,17.55,,,,,,,
21314.57,-0.00023,20.57,,,,,,,
21314.6,-0.00021,23.49,,,,,,,
21314.61,-0.0002,24.73,,,,,,,
21314.63,-0.00018,26.75,,,,,,,
21314.66,-0.00016,29.69,,,,,,,
21314.69,-0.00013,32.71,,,,,,,
21314.71,-0.00011,35.49,,,,,,,
21314.71,-0.00011,35.63,,,,,,,
21314.74,-8e-05,38.52,,,,,,,
21314.77,-6e-05,41.6,,,,,,,
21314.79,-3e-05,44.43,,,,,,,
21314.81,-1e-05,46.51,,,,,,,
21314.82,-1e-05,47.21,,,,,,,
21314.85,2e-05,50.51,,,,,,,
21314.87,4e-05,53.35,,,,,,,
21314.9,7e-05,56.36,,,,,,,
21314.91,9e-05,58.13,,,,,,,
21314.92,9e-05,59.26,,,,,,,
21314.94,0.00012,62.11,,,,,,,
21314.96,0.00015,64.92,,,,,,,
21314.98,0.00017,67.7,,,,,,,
21315.01,0.0002,70.37,,,,,,,
21315.01,0.0002,71.16,,,,,,,
21315.03,0.00022,73.11,,,,,,,
21315.05,0.00025,75.54,,,,,,,
21315.07,0.00027,77.89,,,,,,,
21315.1,0.0003,80.46,,,,,,,
21315.11,0.00031,81.62,,,,,,,
21315.13,0.00032,82.87,,,,,,,
21315.15,0.00035,85.27,,,,,,,
21315.18,0.00037,87.66,,,,,,,
21315.2,0.0004,90.03,,,,,,,
21315.21,0.00041,90.81,,,,,,,
21315.23,0.00042,92.46,,,,,,,
21315.25,0.00045,94.7,,,,,,,
21315.28,0.00047,96.83,,,,,,,
21315.3,0.0005,99.09,,,,,,,
21315.31,0.0005,99.62,,,,,,,
21315.33,0.00052,101.36,,,,,,,
21315.36,0.00055,103.6,,,,,,,
21315.38,0.00057,105.88,,,,,,,
21315.41,0.0006,108.0,,,,,,,
21315.41,0.0006,108.23,,,,,,,
21315.43,0.00062,110.14,,,,,,,
21315.46,0.00065,112.2,,,,,,,
21315.49,0.00067,114.55,,,,,,,
21315.51,0.0007,116.31,,,,,,,
21315.51,0.0007,116.37,,,,,,,
21315.53,0.00073,118.07,,,,,,,
21315.56,0.00075,119.84,,,,,,,
21315.59,0.00078,122.06,,,,,,,
21315.61,0.0008,123.95,,,,,,,
21315.64,0.00083,126.04,,,,,,,
21315.66,0.00085,127.97,,,,,,,
21315.69,0.00088,129.97,,,,,,,
21315.71,0.0009,131.58,,,,,,,
21315.71,0.0009,131.79,,,,,,,
21315.74,0.00093,133.71,,,,,,,
21315.76,0.00095,135.61,,,,,,,
21315.79,0.00098,137.33,,,,,,,
21315.81,0.001,138.82,,,,,,,
21315.81,0.001,139.13,,,,,,,
21315.84,0.00103,140.89,,,,,,,
21315.86,0.00105,142.67,,,,,,,
21315.89,0.00108,144.36,,,,,,,
21315.91,0.0011,145.89,,,,,,,
21315.91,0.0011,146.01,,,,,,,
21315.94,0.00113,147.65,,,,,,,
21315.96,0.00115,149.15,,,,,,,
21315.98,0.00118,150.56,,,,,,,
21316.01,0.00121,151.95,,,,,,,
21316.01,0.00121,152.07,,,,,,,
21316.03,0.00123,153.19,,,,,,,
21316.06,0.00126,154.45,,,,,,,
21316.08,0.00128,155.52,,,,,,,
21316.1,0.00131,156.7,,,,,,,
21316.11,0.00131,156.83,,,,,,,
21316.13,0.00133,157.75,,,,,,,
21316.15,0.00136,158.83,,,,,,,
21316.18,0.00138,159.69,,,,,,,
30012.76,0.00142,159.94,,,,,,,
30012.8,0.00144,157.68,,,,,,,
30012.9,0.00139,142.14,,,,,,,
30012.9,0.00139,141.16,,,,,,,
30012.93,0.00136,136.89,,,,,,,
30012.96,0.00134,131.49,,,,,,,
30012.98,0.00131,127.12,,,,,,,
30013.0,0.00129,122.64,,,,,,,
30013.0,0.00129,122.26,,,,,,,
30013.03,0.00126,117.67,,,,,,,
30013.05,0.00124,113.78,,,,,,,
30013.08,0.00121,109.74,,,,,,,
30013.1,0.00119,106.35,,,,,,,
30013.11,0.00119,105.65,,,,,,,
30013.14,0.00116,101.4,,,,,,,
30013.16,0.00114,97.28,,,,,,,
30013.19,0.00111,93.62,,,,,,,
30013.2,0.0011,91.18,,,,,,,
30013.21,0.00109,89.57,,,,,,,
30013.24,0.00106,85.82,,,,,,,
30013.26,0.00104,82.37,,,,,,,
30013.29,0.00101,78.26,,,,,,,
30013.3,0.001,77.17,,,,,,,
30013.32,0.00099,74.51,,,,,,,
30013.34,0.00096,70.94,,,,,,,
30013.37,0.00094,67.58,,,,,,,
30013.4,0.00091,63.97,,,,,,,
30013.4,0.00091,63.4,,,,,,,
30013.42,0.00088,60.41,,,,,,,
30013.45,0.00086,56.92,,,,,,,
30013.48,0.00083,53.33,,,,,,,
30013.5,0.00081,50.36,,,,,,,
30013.5,0.00081,49.92,,,,,,,
30013.53,0.00078,46.43,,,,,,,
30013.56,0.00076,43.09,,,,,,,
30013.58,0.00073,39.93,,,,,,,
30013.6,0.00071,37.53,,,,,,,
30013.6,0.00071,37.07,,,,,,,
30013.63,0.00068,34.26,,,,,,,
30013.65,0.00066,31.05,,,,,,,
30013.68,0.00063,27.85,,,,,,,
30013.7,0.00062,25.9,,,,,,,
30013.71,0.00061,24.46,,,,,,,
30013.74,0.00058,21.17,,,,,,,
30013.77,0.00056,17.8,,,,,,,
30013.8,0.00053,14.41,,,,,,,
30013.8,0.00053,13.75,,,,,,,
30013.82,0.00051,11.14,,,,,,,
30013.86,0.00048,7.92,,,,,,,
30013.89,0.00046,4.79,,,,,,,
30013.9,0.00045,4.09,,,,,,,
30013.92,0.00043,1.89,,,,,,,
30013.95,0.00041,-1.19,,,,,,,
30013.98,0.00038,-4.67,,,,,,,
30014.0,0.00037,-6.23,,,,,,,
30014.01,0.00036,-7.68,,,,,,,
30014.04,0.00033,-11.02,,,,,,,
30014.06,0.00031,-14.1,,,,,,,
30014.09,0.00028,-17.2,,,,,,,
30014.1,0.00027,-17.93,,,,,,,
30014.12,0.00025,-20.3,,,,,,,
30014.15,0.00023,-23.19,,,,,,,
30014.17,0.0002,-26.42,,,,,,,
30014.2,0.00018,-29.23,,,,,,,
30014.2,0.00018,-29.45,,,,,,,
30014.22,0.00015,-32.33,,,,,,,
30014.24,0.00013,-35.31,,,,,,,
30014.26,0.0001,-38.44,,,,,,,
30014.28,8e-05,-41.39,,,,,,,
30014.3,6e-05,-43.18,,,,,,,
30014.31,5e-05,-44.25,,,,,,,
30014.33,3e-05,-47.09,,,,,,,
30014.35,0.0,-50.06,,,,,,,
30014.38,-2e-05,-52.89,,,,,,,
30014.4,-5e-05,-55.3,,,,,,,
30014.4,-5e-05,-55.49,,,,,,,
30014.42,-7e-05,-58.18,,,,,,,
30014.45,-0.0001,-60.57,,,,,,,
30014.48,-0.00012,-63.43,,,,,,,
30014.5,-0.00015,-65.7,,,,,,,
30014.5,-0.00015,-65.84,,,,,,,
30014.53,-0.00017,-68.36,,,,,,,
30014.55,-0.0002,-70.78,,,,,,,
30014.58,-0.00023,-73.24,,,,,,,
30014.6,-0.00025,-75.25,,,,,,,
30014.6,-0.00025,-75.7,,,,,,,
30014.63,-0.00028,-78.11,,,,,,,
30014.65,-0.0003,-80.39,,,,,,,
30014.68,-0.00033,-82.75,,,,,,,
30014.7,-0.00034,-84.54,,,,,,,
30014.7,-0.00035,-85.25,,,,,,,
30014.73,-0.00038,-87.68,,,,,,,
30014.75,-0.0004,-90.14,,,,,,,
30014.78,-0.00043,-92.41,,,,,,,
30014.8,-0.00045,-94.14,,,,,,,
30014.8,-0.00045,-94.73,,,,,,,
30014.83,-0.00048,-97.01,,,,,,,
30014.85,-0.0005,-99.17,,,,,,,
30014.88,-0.00053,-101.5,,,,,,,
30014.9,-0.00054,-102.9,,,,,,,
30014.9,-0.00055,-103.7,,,,,,,
30014.92,-0.00058,-105.5,,,,,,,
30014.94,-0.0006,-107.1,,,,,,,
30014.97,-0.00063,-108.9,,,,,,,
30014.99,-0.00065,-110.2,,,,,,,
30015.0,-0.00065,-110.8,,,,,,,
30015.03,-0.00068,-113.1,,,,,,,
30015.06,-0.0007,-115.0,,,,,,,
30015.08,-0.00073,-117.1,,,,,,,
30015.09,-0.00074,-118.1,,,,,,,
30015.11,-0.00075,-119.2,,,,,,,
30015.13,-0.00078,-121.3,,,,,,,
30015.16,-0.00081,-123.2,,,,,,,
30015.18,-0.00083,-125.4,,,,,,,
30015.19,-0.00084,-126.3,,,,,,,
30015.21,-0.00086,-127.2,,,,,,,
30015.23,-0.00088,-129.2,,,,,,,
30015.26,-0.00091,-131.0,,,,,,,
30015.28,-0.00093,-132.7,,,,,,,
30015.29,-0.00094,-133.4,,,,,,,
30015.31,-0.00096,-134.5,,,,,,,
30015.33,-0.00098,-136.3,,,,,,,
30015.36,-0.00101,-138.3,,,,,,,
30015.39,-0.00103,-140.3,,,,,,,
30015.39,-0.00104,-140.7,,,,,,,
30015.41,-0.00106,-142.1,,,,,,,
30015.44,-0.00108,-143.8,,,,,,,
30015.46,-0.00111,-145.4,,,,,,,
30015.49,-0.00113,-147.2,,,,,,,
30015.52,-0.00116,-148.8,,,,,,,
30015.54,-0.00118,-150.6,,,,,,,
30015.57,-0.00121,-152.3,,,,,,,
30015.59,-0.00123,-153.7,,,,,,,
30015.59,-0.00123,-153.7,,,,,,,
30015.62,-0.00126,-155.1,,,,,,,
30015.64,-0.00128,-156.7,,,,,,,
30015.66,-0.00131,-157.9,,,,,,,
30015.69,-0.00134,-159.4,,,,,,,
30015.69,-0.00134,-159.5,,,,,,,
30015.72,-0.00136,-160.5,,,,,,,
30015.74,-0.00139,-161.9,,,,,,,
30015.76,-0.00141,-163.0,,,,,,,
30015.79,-0.00143,-162.3,,,,,,,
30015.89,-0.00139,-147.1,,,,,,,
30015.9,-0.00139,-145.2,,,,,,,
30015.93,-0.00136,-140.0,,,,,,,
30015.96,-0.00134,-135.2,,,,,,,
30015.98,-0.00131,-130.4,,,,,,,
30015.99,-0.0013,-128.6,,,,,,,
30016.01,-0.00129,-125.6,,,,,,,
30016.03,-0.00126,-121.1,,,,,,,
30016.06,-0.00123,-117.1,,,,,,,
30016.08,-0.00121,-112.9,,,,,,,
30016.09,-0.0012,-111.9,,,,,,,
30016.11,-0.00118,-108.4,,,,,,,
30016.14,-0.00116,-104.7,,,,,,,
30016.16,-0.00113,-100.5,,,,,,,
30016.19,-0.00111,-96.76,,,,,,,
30016.19,-0.00111,-96.58,,,,,,,
30016.22,-0.00108,-92.37,,,,,,,
30016.24,-0.00106,-88.83,,,,,,,
30016.27,-0.00103,-85.2,,,,,,,
30016.29,-0.00101,-82.44,,,,,,,
30016.3,-0.00101,-81.47,,,,,,,
30016.32,-0.00098,-77.88,,,,,,,
30016.35,-0.00096,-74.11,,,,,,,
30016.38,-0.00093,-70.68,,,,,,,
30016.39,-0.00092,-69.06,,,,,,,
30016.4,-0.00091,-66.98,,,,,,,
30016.43,-0.00088,-63.35,,,,,,,
30016.46,-0.00086,-59.94,,,,,,,
30016.48,-0.00083,-56.48,,,,,,,
30016.49,-0.00083,-55.82,,,,,,,
30016.51,-0.00081,-53.12,,,,,,,
30016.54,-0.00078,-49.54,,,,,,,
30016.56,-0.00076,-45.99,,,,,,,
30016.59,-0.00073,-42.62,,,,,,,
30016.59,-0.00073,-42.37,,,,,,,
30016.62,-0.00071,-39.23,,,,,,,
30016.64,-0.00068,-35.71,,,,,,,
30016.67,-0.00066,-32.41,,,,,,,
30016.69,-0.00064,-29.54,,,,,,,
30016.69,-0.00063,-28.99,,,,,,,
30016.72,-0.00061,-25.81,,,,,,,
30016.74,-0.00058,-22.99,,,,,,,
30016.76,-0.00055,-20.4,,,,,,,
30016.79,-0.00054,-17.98,,,,,,,
30016.79,-0.00053,-17.36,,,,,,,
30016.82,-0.0005,-14.15,,,,,,,
30016.85,-0.00048,-10.64,,,,,,,
30016.88,-0.00045,-7.42,,,,,,,
30016.89,-0.00044,-6.12,,,,,,,
30016.9,-0.00043,-4.18,,,,,,,
30016.93,-0.0004,-1.03,,,,,,,
30016.96,-0.00038,2.5,,,,,,,
30016.98,-0.00035,5.45,,,,,,,
30016.99,-0.00035,5.73,,,,,,,
30017.01,-0.00033,8.9,,,,,,,
30017.04,-0.0003,11.98,,,,,,,
30017.07,-0.00028,14.92,,,,,,,
30017.09,-0.00026,16.42,,,,,,,
30017.1,-0.00025,17.78,,,,,,,
30017.14,-0.00023,20.78,,,,,,,
30017.17,-0.0002,23.84,,,,,,,
30017.19,-0.00018,26.02,,,,,,,
30017.19,-0.00018,26.76,,,,,,,
30017.22,-0.00015,29.62,,,,,,,
30017.25,-0.00013,32.76,,,,,,,
30017.28,-0.0001,35.8,,,,,,,
30017.29,-9e-05,36.63,,,,,,,
30017.3,-8e-05,38.75,,,,,,,
30017.33,-5e-05,41.61,,,,,,,
30017.36,-2e-05,44.23,,,,,,,
30017.39,-0.0,47.32,,,,,,,
30017.39,0.0,47.36,,,,,,,
30017.41,3e-05,50.33,,,,,,,
30017.44,5e-05,53.24,,,,,,,
30017.46,8e-05,56.23,,,,,,,
30017.48,0.0001,58.75,,,,,,,
30017.49,0.0001,59.04,,,,,,,
30017.51,0.00013,61.76,,,,,,,
30017.53,0.00015,64.69,,,,,,,
30017.55,0.00018,67.4,,,,,,,
30017.57,0.0002,70.31,,,,,,,
30017.58,0.00022,71.72,,,,,,,
30017.6,0.00023,72.98,,,,,,,
30017.62,0.00025,75.5,,,,,,,
30017.64,0.00028,78.1,,,,,,,
30017.66,0.0003,80.59,,,,,,,
30017.68,0.00032,82.23,,,,,,,
30017.69,0.00033,82.88,,,,,,,
30017.72,0.00035,85.36,,,,,,,
30017.74,0.00038,87.94,,,,,,,
30017.77,0.0004,90.21,,,,,,,
30017.78,0.00042,91.63,,,,,,,
30017.79,0.00043,92.65,,,,,,,
30017.82,0.00045,94.81,,,,,,,
30017.84,0.00048,97.08,,,,,,,
30017.87,0.0005,99.29,,,,,,,
30017.88,0.00052,100.66,,,,,,,
30017.89,0.00053,101.38,,,,,,,
30017.92,0.00056,103.51,,,,,,,
30017.95,0.00058,105.82,,,,,,,
30017.97,0.00061,107.85,,,,,,,
30017.98,0.00062,108.8,,,,,,,
30018.0,0.00063,109.78,,,,,,,
30018.02,0.00066,111.83,,,,,,,
30018.05,0.00068,113.84,,,,,,,
30018.07,0.00071,115.64,,,,,,,
30018.08,0.00072,116.38,,,,,,,
30018.09,0.00073,117.06,,,,,,,
30018.12,0.00076,119.13,,,,,,,
30018.14,0.00078,121.08,,,,,,,
30018.17,0.00081,122.88,,,,,,,
30018.18,0.00082,123.7,,,,,,,
30018.2,0.00083,124.78,,,,,,,
30018.22,0.00086,126.65,,,,,,,
30018.25,0.00088,128.67,,,,,,,
30018.27,0.00091,130.37,,,,,,,
30018.28,0.00092,130.94,,,,,,,
30018.3,0.00093,132.24,,,,,,,
30018.33,0.00096,134.03,,,,,,,
30018.35,0.00099,135.7,,,,,,,
30018.38,0.00101,137.44,,,,,,,
30018.38,0.00102,137.85,,,,,,,
30018.4,0.00104,139.47,,,,,,,
30018.42,0.00106,141.16,,,,,,,
30018.45,0.00109,142.86,,,,,,,
30018.48,0.00111,144.45,,,,,,,
30018.48,0.00112,144.84,,,,,,,
30018.5,0.00114,146.33,,,,,,,
30018.52,0.00116,147.58,,,,,,,
30018.55,0.00119,149.15,,,,,,,
30018.57,0.00121,150.55,,,,,,,
30018.58,0.00122,151.15,,,,,,,
30018.6,0.00124,152.16,,,,,,,
30018.62,0.00126,153.32,,,,,,,
30018.64,0.00129,154.47,,,,,,,
30018.67,0.00131,155.62,,,,,,,
30018.68,0.00132,156.17,,,,,,,
30018.69,0.00134,156.8,,,,,,,
30018.72,0.00136,157.98,,,,,,,
30018.74,0.00139,158.98,,,,,,,
38427.04,0.00141,158.58,,,,,,,
38427.08,0.00144,156.9,,,,,,,
38427.11,0.00144,153.7,,,,,,,
38427.15,0.00141,144.95,,,,,,,
38427.18,0.00139,139.43,,,,,,,
38427.21,0.00137,135.08,,,,,,,
38427.21,0.00136,134.05,,,,,,,
38427.24,0.00134,129.11,,,,,,,
38427.26,0.00131,124.25,,,,,,,
38427.29,0.00129,119.45,,,,,,,
38427.3,0.00127,117.11,,,,,,,
38427.32,0.00126,114.89,,,,,,,
38427.34,0.00124,110.65,,,,,,,
38427.37,0.00121,106.48,,,,,,,
38427.4,0.00118,102.27,,,,,,,
38427.4,0.00118,100.73,,,,,,,
38427.42,0.00116,98.16,,,,,,,
38427.45,0.00113,94.42,,,,,,,
38427.48,0.00111,90.53,,,,,,,
38427.5,0.00108,86.54,,,,,,,
38427.51,0.00108,86.03,,,,,,,
38427.53,0.00106,83.12,,,,,,,
38427.55,0.00103,79.25,,,,,,,
38427.58,0.00101,75.43,,,,,,,
38427.6,0.00098,71.93,,,,,,,
38427.61,0.00098,71.65,,,,,,,
38427.63,0.00096,67.91,,,,,,,
38427.66,0.00093,64.25,,,,,,,
38427.68,0.00091,60.78,,,,,,,
38427.7,0.00089,57.95,,,,,,,
38427.71,0.00088,57.29,,,,,,,
38427.74,0.00086,53.47,,,,,,,
38427.76,0.00083,50.09,,,,,,,
38427.79,0.00081,46.36,,,,,,,
38427.8,0.00079,44.86,,,,,,,
38427.82,0.00078,42.87,,,,,,,
38427.84,0.00076,39.43,,,,,,,
38427.87,0.00073,35.91,,,,,,,
38427.89,0.00071,33.37,,,,,,,
38427.9,0.00069,31.88,,,,,,,
38427.92,0.00068,30.25,,,,,,,
38427.94,0.00066,26.99,,,,,,,
38427.98,0.00063,23.52,,,,,,,
38428.0,0.0006,20.16,,,,,,,
38428.0,0.0006,19.87,,,,,,,
38428.03,0.00058,16.78,,,,,,,
38428.06,0.00055,13.44,,,,,,,
38428.09,0.00053,9.91,,,,,,,
38428.1,0.00052,8.29,,,,,,,
38428.12,0.0005,6.97,,,,,,,
38428.15,0.00048,3.8,,,,,,,
38428.19,0.00045,0.34,,,,,,,
38428.2,0.00044,-1.22,,,,,,,
38428.22,0.00043,-2.82,,,,,,,
38428.24,0.0004,-5.9,,,,,,,
38428.27,0.00038,-8.95,,,,,,,
38428.3,0.00035,-12.41,,,,,,,
38428.33,0.00033,-15.66,,,,,,,
38428.35,0.0003,-18.8,,,,,,,
38428.38,0.00028,-21.61,,,,,,,
38428.4,0.00026,-24.08,,,,,,,
38428.4,0.00025,-24.81,,,,,,,
38428.43,0.00023,-27.72,,,,,,,
38428.46,0.0002,-30.59,,,,,,,
38428.48,0.00018,-33.56,,,,,,,
38428.5,0.00015,-36.33,,,,,,,
38428.5,0.00015,-36.7,,,,,,,
38428.52,0.00013,-39.61,,,,,,,
38428.54,0.0001,-42.43,,,,,,,
38428.56,7e-05,-45.19,,,,,,,
38428.58,5e-05,-47.86,,,,,,,
38428.6,4e-05,-49.62,,,,,,,
38428.61,2e-05,-50.57,,,,,,,
38428.63,-0.0,-53.23,,,,,,,
38428.66,-3e-05,-55.92,,,,,,,
38428.69,-5e-05,-58.58,,,,,,,
38428.7,-7e-05,-60.0,,,,,,,
38428.71,-8e-05,-61.06,,,,,,,
38428.74,-0.0001,-63.71,,,,,,,
38428.76,-0.00013,-66.12,,,,,,,
38428.79,-0.00015,-68.54,,,,,,,
38428.8,-0.00016,-69.74,,,,,,,
38428.81,-0.00018,-70.94,,,,,,,
38428.84,-0.0002,-73.28,,,,,,,
38428.86,-0.00023,-75.54,,,,,,,
38428.89,-0.00025,-78.04,,,,,,,
38428.9,-0.00026,-79.18,,,,,,,
38428.91,-0.00028,-80.44,,,,,,,
38428.94,-0.0003,-82.74,,,,,,,
38428.96,-0.00033,-84.95,,,,,,,
38428.99,-0.00035,-87.49,,,,,,,
38429.0,-0.00037,-88.68,,,,,,,
38429.01,-0.00038,-89.73,,,,,,,
38429.04,-0.0004,-92.09,,,,,,,
38429.06,-0.00043,-94.18,,,,,,,
38429.09,-0.00046,-96.47,,,,,,,
38429.1,-0.00047,-97.28,,,,,,,
38429.12,-0.00048,-98.66,,,,,,,
38429.14,-0.00051,-100.8,,,,,,,
38429.16,-0.00053,-102.9,,,,,,,
38429.19,-0.00056,-104.8,,,,,,,
38429.2,-0.00057,-105.5,,,,,,,
38429.21,-0.00058,-106.4,,,,,,,
38429.23,-0.00061,-107.8,,,,,,,
38429.26,-0.00063,-109.6,,,,,,,
38429.29,-0.00066,-111.5,,,,,,,
38429.3,-0.00067,-112.3,,,,,,,
38429.31,-0.00068,-113.6,,,,,,,
38429.34,-0.00071,-115.5,,,,,,,
38429.37,-0.00073,-117.4,,,,,,,
38429.39,-0.00076,-119.4,,,,,,,
38429.4,-0.00076,-119.6,,,,,,,
38429.42,-0.00078,-121.3,,,,,,,
38429.44,-0.00081,-123.2,,,,,,,
38429.47,-0.00083,-125.3,,,,,,,
38429.49,-0.00086,-127.1,,,,,,,
38429.5,-0.00086,-127.1,,,,,,,
38429.52,-0.00088,-129.0,,,,,,,
38429.55,-0.00091,-130.8,,,,,,,
38429.57,-0.00093,-132.6,,,,,,,
38429.6,-0.00096,-134.4,,,,,,,
38429.6,-0.00096,-134.4,,,,,,,
38429.62,-0.00099,-136.1,,,,,,,
38429.65,-0.00101,-138.0,,,,,,,
38429.67,-0.00104,-139.7,,,,,,,
38429.69,-0.00106,-141.2,,,,,,,
38429.7,-0.00106,-141.3,,,,,,,
38429.73,-0.00109,-142.9,,,,,,,
38429.75,-0.00111,-144.5,,,,,,,
38429.78,-0.00114,-146.2,,,,,,,
38429.8,-0.00116,-147.5,,,,,,,
38429.8,-0.00116,-147.7,,,,,,,
38429.83,-0.00119,-149.2,,,,,,,
38429.85,-0.00121,-150.8,,,,,,,
38429.87,-0.00124,-152.0,,,,,,,
38429.9,-0.00126,-153.3,,,,,,,
38429.9,-0.00126,-153.4,,,,,,,
38429.92,-0.00129,-154.7,,,,,,,
38429.95,-0.00131,-156.0,,,,,,,
38429.97,-0.00134,-157.1,,,,,,,
38429.99,-0.00136,-158.2,,,,,,,
38429.99,-0.00136,-158.3,,,,,,,
38430.02,-0.00139,-159.4,,,,,,,
38430.04,-0.00141,-160.2,,,,,,,
38430.09,-0.00144,-157.3,,,,,,,
38430.18,-0.00139,-142.5,,,,,,,
38430.19,-0.00138,-139.9,,,,,,,
38430.21,-0.00136,-137.4,,,,,,,
38430.23,-0.00134,-132.3,,,,,,,
38430.26,-0.00131,-128.0,,,,,,,
38430.28,-0.00129,-123.4,,,,,,,
38430.3,-0.00128,-121.9,,,,,,,
38430.31,-0.00126,-119.1,,,,,,,
38430.34,-0.00124,-114.7,,,,,,,
38430.36,-0.00121,-110.7,,,,,,,
38430.39,-0.00119,-106.6,,,,,,,
38430.39,-0.00118,-105.9,,,,,,,
38430.42,-0.00116,-102.5,,,,,,,
38430.44,-0.00114,-98.68,,,,,,,
38430.47,-0.00111,-94.45,,,,,,,
38430.49,-0.00109,-90.89,,,,,,,
38430.49,-0.00109,-90.53,,,,,,,
38430.52,-0.00106,-86.57,,,,,,,
38430.55,-0.00104,-82.86,,,,,,,
38430.57,-0.00101,-79.28,,,,,,,
38430.59,-0.00099,-76.55,,,,,,,
38430.6,-0.00099,-75.48,,,,,,,
38430.63,-0.00096,-71.83,,,,,,,
38430.65,-0.00093,-68.29,,,,,,,
38430.68,-0.00091,-64.7,,,,,,,
38430.69,-0.0009,-63.05,,,,,,,
38430.71,-0.00088,-61.04,,,,,,,
38430.73,-0.00086,-57.61,,,,,,,
38430.76,-0.00083,-54.15,,,,,,,
38430.78,-0.00081,-50.89,,,,,,,
38430.79,-0.0008,-49.99,,,,,,,
38430.81,-0.00078,-47.29,,,,,,,
38430.84,-0.00076,-43.77,,,,,,,
38430.87,-0.00073,-40.39,,,,,,,
38430.89,-0.00071,-37.08,,,,,,,
38430.89,-0.00071,-37.02,,,,,,,
38430.92,-0.00068,-33.66,,,,,,,
38430.94,-0.00066,-30.38,,,,,,,
38430.97,-0.00063,-26.94,,,,,,,
38430.99,-0.00061,-24.56,,,,,,,
38430.99,-0.00061,-23.86,,,,,,,
38431.02,-0.00058,-21.21,,,,,,,
38431.04,-0.00056,-18.5,,,,,,,
38431.07,-0.00053,-15.36,,,,,,,
38431.09,-0.00052,-13.22,,,,,,,
38431.1,-0.00051,-12.14,,,,,,,
38431.13,-0.00048,-8.58,,,,,,,
38431.15,-0.00046,-5.44,,,,,,,
38431.18,-0.00043,-2.24,,,,,,,
38431.19,-0.00042,-1.37,,,,,,,
38431.21,-0.00041,1.12,,,,,,,
38431.24,-0.00038,4.43,,,,,,,
38431.26,-0.00036,7.71,,,,,,,
38431.29,-0.00033,10.59,,,,,,,
38431.29,-0.00033,10.83,,,,,,,
38431.32,-0.00031,13.92,,,,,,,
38431.35,-0.00028,16.78,,,,,,,
38431.38,-0.00025,19.9,,,,,,,
38431.39,-0.00025,20.28,,,,,,,
38431.42,-0.00023,22.95,,,,,,,
38431.44,-0.0002,25.92,,,,,,,
38431.48,-0.00018,29.15,,,,,,,
38431.49,-0.00017,30.57,,,,,,,
38431.5,-0.00015,31.87,,,,,,,
38431.53,-0.00013,35.01,,,,,,,
38431.56,-0.0001,37.84,,,,,,,
38431.58,-8e-05,40.5,,,,,,,
38431.59,-7e-05,41.09,,,,,,,
38431.61,-5e-05,43.23,,,,,,,
38431.63,-3e-05,45.91,,,,,,,
38431.66,-0.0,48.78,,,,,,,
38431.69,2e-05,51.8,,,,,,,
38431.71,5e-05,54.48,,,,,,,
38431.74,7e-05,57.11,,,,,,,
38431.76,0.0001,59.82,,,,,,,
38431.78,0.00012,62.66,,,,,,,
38431.79,0.00013,63.7,,,,,,,
38431.8,0.00015,65.3,,,,,,,
38431.82,0.00017,67.87,,,,,,,
38431.85,0.0002,70.55,,,,,,,
38431.87,0.00022,73.15,,,,,,,
38431.89,0.00025,75.21,,,,,,,
38431.89,0.00025,75.62,,,,,,,
38431.92,0.00027,77.99,,,,,,,
38431.94,0.0003,80.2,,,,,,,
38431.97,0.00032,82.69,,,,,,,
38431.99,0.00035,84.59,,,,,,,
38431.99,0.00035,84.92,,,,,,,
38432.02,0.00037,87.3,,,,,,,
38432.04,0.0004,89.73,,,,,,,
38432.07,0.00043,91.9,,,,,,,
38432.08,0.00044,93.52,,,,,,,
38432.09,0.00045,94.09,,,,,,,
38432.12,0.00048,96.24,,,,,,,
38432.15,0.0005,98.47,,,,,,,
38432.17,0.00053,100.73,,,,,,,
38432.19,0.00054,101.84,,,,,,,
38432.2,0.00055,102.96,,,,,,,
38432.23,0.00058,105.13,,,,,,,
38432.25,0.0006,107.27,,,,,,,
38432.28,0.00063,109.46,,,,,,,
38432.29,0.00064,110.1,,,,,,,
38432.3,0.00065,111.59,,,,,,,
38432.33,0.00068,113.72,,,,,,,
38432.35,0.0007,115.56,,,,,,,
38432.37,0.00073,116.97,,,,,,,
38432.38,0.00074,118.11,,,,,,,
38432.4,0.00075,118.9,,,,,,,
38432.42,0.00078,120.85,,,,,,,
38432.45,0.0008,122.8,,,,,,,
38432.48,0.00083,124.73,,,,,,,
38432.48,0.00084,125.3,,,,,,,
38432.5,0.00085,126.66,,,,,,,
38432.53,0.00088,128.55,,,,,,,
38432.55,0.0009,130.28,,,,,,,
38432.58,0.00093,132.11,,,,,,,
38432.58,0.00094,132.5,,,,,,,
38432.6,0.00095,133.9,,,,,,,
38432.63,0.00098,135.7,,,,,,,
38432.65,0.001,137.27,,,,,,,
38432.68,0.00103,139.04,,,,,,,
38432.69,0.00104,139.42,,,,,,,
38432.7,0.00106,140.74,,,,,,,
38432.73,0.00108,142.27,,,,,,,
38432.75,0.00111,143.84,,,,,,,
38432.78,0.00113,145.37,,,,,,,
38432.78,0.00114,145.87,,,,,,,
38432.8,0.00116,146.69,,,,,,,
38432.82,0.00118,148.14,,,,,,,
38432.85,0.00121,149.37,,,,,,,
38432.87,0.00123,150.73,,,,,,,
38432.88,0.00125,151.33,,,,,,,
38432.9,0.00126,151.91,,,,,,,
38432.92,0.00128,152.97,,,,,,,
38432.94,0.00131,154.0,,,,,,,
38432.97,0.00133,154.93,,,,,,,
38432.98,0.00135,155.49,,,,,,,
38432.99,0.00136,155.83,,,,,,,
38433.01,0.00138,156.53,,,,,,,
