time,strain,stress,temperature,type,strain_rate,max_strain,title,youngs,poissons
0.0,3e-05,11.57,850,fatigue,0.001,0.00168,43-18,153000,0.3
0.02,5e-05,14.9,,,,,,,
0.04,8e-05,17.67,,,,,,,
0.08,0.0001,20.25,,,,,,,
0.12,0.00013,23.34,,,,,,,
0.16,0.00015,27.06,,,,,,,
0.19,0.00018,31.01,,,,,,,
0.22,0.0002,35.63,,,,,,,
0.24,0.00023,41.53,,,,,,,
0.25,0.00026,46.05,,,,,,,
0.27,0.00028,49.63,,,,,,,
0.28,0.00031,52.66,,,,,,,
0.29,0.00033,55.3,,,,,,,
0.3,0.00036,57.53,,,,,,,
0.32,0.00039,59.4,,,,,,,
0.36,0.00041,61.02,,,,,,,
0.42,0.00044,65.48,,,,,,,
0.46,0.00046,70.37,,,,,,,
0.48,0.00049,74.65,,,,,,,
0.51,0.00051,78.55,,,,,,,
0.53,0.00054,82.07,,,,,,,
0.55,0.00056,85.19,,,,,,,
0.58,0.00059,88.28,,,,,,,
0.61,0.00062,91.61,,,,,,,
0.64,0.00064,95.23,,,,,,,
0.67,0.00067,99.53,,,,,,,
0.7,0.00069,103.75,,,,,,,
0.73,0.00072,107.51,,,,,,,
0.75,0.00074,111.14,,,,,,,
0.78,0.00077,114.88,,,,,,,
0.8,0.00079,118.23,,,,,,,
0.83,0.00082,121.61,,,,,,,
0.86,0.00084,125.08,,,,,,,
0.88,0.00087,128.62,,,,,,,
0.91,0.00089,132.84,,,,,,,
0.94,0.00092,136.26,,,,,,,
1.04,0.00089,123.94,,,,,,,
1.05,0.00087,119.79,,,,,,,
1.07,0.00084,116.55,,,,,,,
1.08,0.00082,113.64,,,,,,,
1.1,0.00079,110.9,,,,,,,
1.13,0.00077,108.43,,,,,,,
1.18,0.00074,104.27,,,,,,,
1.22,0.00071,98.68,,,,,,,
1.25,0.00069,94.03,,,,,,,
1.27,0.00066,89.86,,,,,,,
1.3,0.00064,85.99,,,,,,,
1.32,0.00061,82.46,,,,,,,
1.34,0.00059,78.72,,,,,,,
1.37,0.00056,74.91,,,,,,,
1.4,0.00054,71.04,,,,,,,
1.43,0.00051,66.69,,,,,,,
1.46,0.00049,62.61,,,,,,,
1.48,0.00046,58.54,,,,,,,
1.51,0.00044,54.68,,,,,,,
1.53,0.00041,51.04,,,,,,,
1.56,0.00038,47.47,,,,,,,
1.58,0.00036,43.91,,,,,,,
1.61,0.00033,40.18,,,,,,,
1.64,0.00031,36.21,,,,,,,
1.67,0.00028,32.19,,,,,,,
1.7,0.00026,28.11,,,,,,,
1.72,0.00023,24.07,,,,,,,
1.75,0.00021,20.41,,,,,,,
1.77,0.00018,16.61,,,,,,,
1.8,0.00016,12.89,,,,,,,
1.83,0.00013,9.35,,,,,,,
1.85,0.00011,5.55,,,,,,,
1.88,8e-05,2.0,,,,,,,
1.91,6e-05,-1.39,,,,,,,
1.93,3e-05,-5.13,,,,,,,
1.96,0.0,-8.82,,,,,,,
1.99,-2e-05,-12.27,,,,,,,
2.02,-5e-05,-14.83,,,,,,,
2.12,-7e-05,-17.35,,,,,,,
2.15,-0.0001,-22.23,,,,,,,
2.17,-0.00012,-27.14,,,,,,,
2.19,-0.00015,-32.01,,,,,,,
2.2,-0.00017,-36.09,,,,,,,
2.22,-0.0002,-41.22,,,,,,,
2.23,-0.00023,-45.56,,,,,,,
2.24,-0.00025,-48.94,,,,,,,
2.25,-0.00028,-51.81,,,,,,,
2.27,-0.00031,-54.26,,,,,,,
2.28,-0.00033,-56.23,,,,,,,
2.31,-0.00036,-57.62,,,,,,,
2.4,-0.00038,-64.1,,,,,,,
2.43,-0.00041,-69.73,,,,,,,
2.45,-0.00043,-74.18,,,,,,,
2.47,-0.00046,-77.91,,,,,,,
2.48,-0.00048,-81.09,,,,,,,
2.51,-0.00051,-84.15,,,,,,,
2.53,-0.00053,-87.25,,,,,,,
2.56,-0.00056,-90.49,,,,,,,
2.6,-0.00059,-94.34,,,,,,,
2.63,-0.00061,-98.36,,,,,,,
2.66,-0.00064,-102.0,,,,,,,
2.68,-0.00066,-105.4,,,,,,,
2.7,-0.00069,-108.8,,,,,,,
2.73,-0.00071,-112.3,,,,,,,
2.75,-0.00074,-116.5,,,,,,,
2.78,-0.00076,-121.0,,,,,,,
2.8,-0.00079,-125.3,,,,,,,
2.82,-0.00082,-129.3,,,,,,,
2.84,-0.00084,-133.2,,,,,,,
2.86,-0.00087,-136.8,,,,,,,
2.88,-0.00089,-140.4,,,,,,,
2.91,-0.00092,-144.0,,,,,,,
2.93,-0.00094,-147.5,,,,,,,
2.96,-0.00097,-148.5,,,,,,,
3.01,-0.00094,-138.2,,,,,,,
3.03,-0.00092,-133.6,,,,,,,
3.04,-0.00089,-129.7,,,,,,,
3.06,-0.00086,-126.5,,,,,,,
3.07,-0.00084,-123.7,,,,,,,
3.09,-0.00081,-121.0,,,,,,,
3.11,-0.00079,-118.8,,,,,,,
3.15,-0.00076,-116.1,,,,,,,
3.2,-0.00074,-111.4,,,,,,,
3.23,-0.00071,-106.4,,,,,,,
3.26,-0.00069,-102.1,,,,,,,
3.28,-0.00066,-98.23,,,,,,,
3.3,-0.00063,-94.6,,,,,,,
3.32,-0.00061,-91.1,,,,,,,
3.35,-0.00058,-87.77,,,,,,,
3.37,-0.00056,-84.45,,,,,,,
3.4,-0.00053,-80.86,,,,,,,
3.44,-0.00051,-76.54,,,,,,,
3.47,-0.00048,-72.0,,,,,,,
3.49,-0.00046,-67.9,,,,,,,
3.52,-0.00043,-63.92,,,,,,,
3.54,-0.0004,-60.28,,,,,,,
3.57,-0.00038,-56.7,,,,,,,
3.59,-0.00035,-52.93,,,,,,,
3.62,-0.00033,-49.03,,,,,,,
3.65,-0.0003,-45.31,,,,,,,
3.67,-0.00028,-41.4,,,,,,,
3.7,-0.00025,-37.36,,,,,,,
3.73,-0.00023,-32.97,,,,,,,
3.76,-0.0002,-28.44,,,,,,,
3.79,-0.00018,-24.21,,,,,,,
3.81,-0.00015,-20.24,,,,,,,
3.84,-0.00013,-16.31,,,,,,,
3.86,-0.0001,-12.51,,,,,,,
3.89,-7e-05,-8.81,,,,,,,
3.91,-5e-05,-5.02,,,,,,,
3.94,-2e-05,-1.02,,,,,,,
3.97,0.0,2.62,,,,,,,
4.0,3e-05,6.65,,,,,,,
4.03,5e-05,10.97,,,,,,,
4.06,8e-05,15.07,,,,,,,
4.09,0.0001,19.3,,,,,,,
4.11,0.00013,23.17,,,,,,,
4.14,0.00016,26.91,,,,,,,
4.17,0.00018,30.74,,,,,,,
4.19,0.00021,33.42,,,,,,,
4.3,0.00023,41.54,,,,,,,
4.31,0.00026,47.86,,,,,,,
4.33,0.00028,53.01,,,,,,,
4.33,0.00031,56.98,,,,,,,
4.34,0.00034,60.24,,,,,,,
4.35,0.00036,63.4,,,,,,,
4.36,0.00039,65.96,,,,,,,
4.38,0.00042,68.24,,,,,,,
4.39,0.00044,69.87,,,,,,,
4.42,0.00047,70.46,,,,,,,
4.52,0.00049,77.8,,,,,,,
4.54,0.00052,82.5,,,,,,,
4.56,0.00054,86.33,,,,,,,
4.58,0.00057,89.9,,,,,,,
4.6,0.0006,93.31,,,,,,,
4.63,0.00062,96.58,,,,,,,
4.66,0.00065,100.18,,,,,,,
4.69,0.00067,104.11,,,,,,,
4.73,0.0007,108.39,,,,,,,
4.76,0.00072,112.82,,,,,,,
4.78,0.00075,117.06,,,,,,,
4.81,0.00077,121.15,,,,,,,
4.84,0.0008,125.27,,,,,,,
4.86,0.00083,129.44,,,,,,,
4.89,0.00085,133.54,,,,,,,
4.92,0.00088,137.51,,,,,,,
4.95,0.0009,141.43,,,,,,,
4.97,0.00093,145.51,,,,,,,
5.0,0.00095,149.56,,,,,,,
5.03,0.00098,153.96,,,,,,,
5.06,0.001,157.12,,,,,,,
5.15,0.00098,146.25,,,,,,,
5.16,0.00095,142.61,,,,,,,
5.18,0.00093,139.43,,,,,,,
5.2,0.0009,136.44,,,,,,,
5.22,0.00088,133.79,,,,,,,
5.26,0.00085,130.79,,,,,,,
5.31,0.00082,126.36,,,,,,,
5.34,0.0008,121.67,,,,,,,
5.37,0.00077,117.74,,,,,,,
5.39,0.00075,114.05,,,,,,,
5.41,0.00072,110.39,,,,,,,
5.44,0.0007,107.04,,,,,,,
5.46,0.00067,103.8,,,,,,,
5.49,0.00065,100.4,,,,,,,
5.52,0.00062,96.74,,,,,,,
5.56,0.00059,92.43,,,,,,,
5.59,0.00057,87.86,,,,,,,
5.61,0.00054,83.72,,,,,,,
5.63,0.00052,79.94,,,,,,,
5.66,0.00049,76.54,,,,,,,
5.68,0.00047,73.32,,,,,,,
5.71,0.00044,70.14,,,,,,,
5.73,0.00042,66.7,,,,,,,
5.77,0.00039,62.73,,,,,,,
5.8,0.00036,58.75,,,,,,,
5.83,0.00034,54.51,,,,,,,
5.85,0.00031,50.39,,,,,,,
5.88,0.00029,46.7,,,,,,,
5.9,0.00026,43.21,,,,,,,
5.92,0.00024,40.09,,,,,,,
5.95,0.00021,36.99,,,,,,,
5.97,0.00018,33.78,,,,,,,
6.0,0.00016,30.23,,,,,,,
6.04,0.00013,25.89,,,,,,,
6.07,0.00011,21.25,,,,,,,
6.1,8e-05,16.92,,,,,,,
6.12,6e-05,13.07,,,,,,,
6.14,3e-05,9.21,,,,,,,
6.17,1e-05,5.5,,,,,,,
6.19,-2e-05,1.97,,,,,,,
6.22,-4e-05,-1.56,,,,,,,
6.25,-7e-05,-5.39,,,,,,,
6.28,-0.0001,-9.34,,,,,,,
6.31,-0.00012,-13.36,,,,,,,
6.34,-0.00015,-16.23,,,,,,,
6.45,-0.00017,-21.36,,,,,,,
6.47,-0.0002,-26.67,,,,,,,
6.49,-0.00022,-31.88,,,,,,,
6.5,-0.00025,-36.13,,,,,,,
6.52,-0.00028,-40.87,,,,,,,
6.53,-0.0003,-46.22,,,,,,,
6.54,-0.00033,-50.07,,,,,,,
6.55,-0.00035,-53.12,,,,,,,
6.57,-0.00038,-55.94,,,,,,,
6.58,-0.00041,-58.33,,,,,,,
6.6,-0.00043,-60.26,,,,,,,
6.64,-0.00046,-61.6,,,,,,,
6.71,-0.00048,-67.7,,,,,,,
6.73,-0.00051,-72.12,,,,,,,
6.75,-0.00053,-75.93,,,,,,,
6.77,-0.00056,-79.33,,,,,,,
6.79,-0.00058,-82.46,,,,,,,
6.82,-0.00061,-85.59,,,,,,,
6.85,-0.00064,-88.9,,,,,,,
6.89,-0.00066,-92.7,,,,,,,
6.92,-0.00069,-97.07,,,,,,,
6.95,-0.00071,-101.1,,,,,,,
6.97,-0.00074,-105.0,,,,,,,
7.0,-0.00076,-109.1,,,,,,,
7.02,-0.00079,-113.0,,,,,,,
7.05,-0.00081,-117.4,,,,,,,
7.07,-0.00084,-121.8,,,,,,,
7.09,-0.00086,-125.9,,,,,,,
7.11,-0.00089,-129.8,,,,,,,
7.13,-0.00091,-133.8,,,,,,,
7.16,-0.00094,-137.7,,,,,,,
7.18,-0.00097,-141.3,,,,,,,
7.2,-0.00099,-145.0,,,,,,,
7.22,-0.00102,-148.7,,,,,,,
7.24,-0.00104,-152.2,,,,,,,
7.27,-0.00107,-153.3,,,,,,,
7.33,-0.00104,-141.1,,,,,,,
7.35,-0.00101,-136.5,,,,,,,
7.36,-0.00099,-132.9,,,,,,,
7.37,-0.00096,-129.7,,,,,,,
7.38,-0.00094,-127.0,,,,,,,
7.4,-0.00091,-124.4,,,,,,,
7.42,-0.00089,-122.3,,,,,,,
7.46,-0.00086,-119.9,,,,,,,
7.52,-0.00084,-113.8,,,,,,,
7.55,-0.00081,-108.6,,,,,,,
7.57,-0.00079,-104.2,,,,,,,
7.59,-0.00076,-100.3,,,,,,,
7.61,-0.00073,-96.61,,,,,,,
7.63,-0.00071,-93.12,,,,,,,
7.66,-0.00068,-89.62,,,,,,,
7.68,-0.00066,-86.37,,,,,,,
7.71,-0.00063,-82.99,,,,,,,
7.74,-0.00061,-79.16,,,,,,,
7.77,-0.00058,-74.96,,,,,,,
7.8,-0.00056,-70.68,,,,,,,
7.83,-0.00053,-66.69,,,,,,,
7.85,-0.0005,-62.87,,,,,,,
7.88,-0.00048,-59.39,,,,,,,
7.9,-0.00045,-55.69,,,,,,,
7.93,-0.00043,-51.77,,,,,,,
7.96,-0.0004,-47.91,,,,,,,
7.99,-0.00038,-44.05,,,,,,,
8.02,-0.00035,-39.97,,,,,,,
8.04,-0.00033,-36.09,,,,,,,
8.07,-0.0003,-32.48,,,,,,,
8.09,-0.00027,-28.82,,,,,,,
8.12,-0.00025,-25.3,,,,,,,
8.14,-0.00022,-21.9,,,,,,,
8.17,-0.0002,-18.51,,,,,,,
8.2,-0.00017,-15.05,,,,,,,
8.22,-0.00015,-11.49,,,,,,,
8.25,-0.00012,-8.01,,,,,,,
8.28,-0.0001,-4.47,,,,,,,
8.3,-7e-05,-0.89,,,,,,,
18.38,-0.00013,44.16,,,,,,,
18.39,-0.0001,50.82,,,,,,,
18.4,-7e-05,55.46,,,,,,,
18.41,-5e-05,59.42,,,,,,,
18.42,-2e-05,62.99,,,,,,,
18.43,1e-05,65.92,,,,,,,
18.44,3e-05,68.51,,,,,,,
18.46,6e-05,70.75,,,,,,,
18.48,8e-05,72.28,,,,,,,
18.58,0.00011,78.18,,,,,,,
18.6,0.00013,83.61,,,,,,,
18.62,0.00016,87.56,,,,,,,
18.64,0.00019,91.08,,,,,,,
18.66,0.00021,94.39,,,,,,,
18.68,0.00024,97.28,,,,,,,
18.71,0.00026,100.21,,,,,,,
18.74,0.00029,103.25,,,,,,,
18.77,0.00031,106.63,,,,,,,
18.81,0.00034,110.78,,,,,,,
18.84,0.00036,114.75,,,,,,,
18.86,0.00039,118.44,,,,,,,
18.89,0.00041,121.79,,,,,,,
18.91,0.00044,124.63,,,,,,,
18.93,0.00047,127.22,,,,,,,
18.95,0.00049,129.56,,,,,,,
18.97,0.00052,131.49,,,,,,,
19.0,0.00054,133.51,,,,,,,
19.03,0.00057,135.54,,,,,,,
19.06,0.00059,137.65,,,,,,,
19.09,0.00062,139.82,,,,,,,
19.11,0.00064,141.95,,,,,,,
19.13,0.00067,143.71,,,,,,,
19.15,0.00069,145.09,,,,,,,
19.16,0.00072,146.25,,,,,,,
19.18,0.00075,147.18,,,,,,,
19.19,0.00077,147.94,,,,,,,
19.21,0.0008,148.43,,,,,,,
19.26,0.00082,148.36,,,,,,,
19.32,0.00085,154.1,,,,,,,
19.34,0.00087,157.4,,,,,,,
19.35,0.0009,158.35,,,,,,,
19.36,0.00093,159.24,,,,,,,
19.36,0.00095,160.05,,,,,,,
19.37,0.00098,160.69,,,,,,,
19.37,0.00101,161.24,,,,,,,
19.38,0.00103,161.66,,,,,,,
19.38,0.00106,161.83,,,,,,,
19.39,0.00109,161.66,,,,,,,
19.4,0.00111,160.45,,,,,,,
19.44,0.00109,147.78,,,,,,,
19.46,0.00106,144.68,,,,,,,
19.47,0.00104,142.45,,,,,,,
19.48,0.00101,141.98,,,,,,,
19.54,0.00104,155.94,,,,,,,
19.55,0.00106,160.55,,,,,,,
19.56,0.00109,164.19,,,,,,,
19.57,0.00112,167.56,,,,,,,
19.58,0.00114,170.3,,,,,,,
19.59,0.00117,171.3,,,,,,,
19.6,0.00119,170.8,,,,,,,
19.6,0.00122,171.39,,,,,,,
19.61,0.00125,171.81,,,,,,,
19.61,0.00128,172.14,,,,,,,
19.61,0.00131,172.32,,,,,,,
19.62,0.00134,172.39,,,,,,,
19.62,0.00137,172.26,,,,,,,
19.63,0.0014,171.91,,,,,,,
19.63,0.00143,170.86,,,,,,,
19.64,0.00145,167.06,,,,,,,
19.67,0.00143,152.89,,,,,,,
19.67,0.0014,147.83,,,,,,,
19.68,0.00137,143.6,,,,,,,
19.69,0.00135,140.31,,,,,,,
19.69,0.00132,137.48,,,,,,,
19.7,0.0013,135.08,,,,,,,
19.7,0.00127,132.9,,,,,,,
19.71,0.00124,131.45,,,,,,,
19.72,0.00122,131.16,,,,,,,
19.74,0.00119,135.09,,,,,,,
19.76,0.00122,145.76,,,,,,,
19.77,0.00124,151.35,,,,,,,
19.78,0.00127,155.77,,,,,,,
19.79,0.0013,159.75,,,,,,,
19.79,0.00132,162.72,,,,,,,
19.8,0.00135,165.15,,,,,,,
19.81,0.00137,167.01,,,,,,,
19.82,0.0014,167.98,,,,,,,
19.83,0.00143,167.49,,,,,,,
19.86,0.00142,156.08,,,,,,,
19.87,0.0014,150.94,,,,,,,
19.88,0.00137,146.26,,,,,,,
19.89,0.00135,142.13,,,,,,,
19.9,0.00132,138.31,,,,,,,
19.91,0.00129,134.78,,,,,,,
19.91,0.00127,131.59,,,,,,,
19.92,0.00124,129.04,,,,,,,
19.93,0.00121,126.62,,,,,,,
19.94,0.00119,124.61,,,,,,,
19.95,0.00116,123.28,,,,,,,
20.08,0.00114,116.83,,,,,,,
20.1,0.00111,111.85,,,,,,,
20.12,0.00109,107.82,,,,,,,
20.13,0.00106,104.21,,,,,,,
20.15,0.00104,100.88,,,,,,,
20.17,0.00101,97.81,,,,,,,
20.19,0.00098,94.68,,,,,,,
20.22,0.00096,91.21,,,,,,,
20.26,0.00093,86.96,,,,,,,
20.29,0.00091,82.32,,,,,,,
20.32,0.00088,77.91,,,,,,,
20.34,0.00086,73.76,,,,,,,
20.37,0.00083,69.67,,,,,,,
20.39,0.00081,65.83,,,,,,,
20.42,0.00078,61.86,,,,,,,
20.45,0.00075,57.9,,,,,,,
20.47,0.00073,53.97,,,,,,,
20.5,0.0007,49.5,,,,,,,
20.53,0.00068,45.39,,,,,,,
20.56,0.00065,41.16,,,,,,,
20.59,0.00063,36.76,,,,,,,
20.61,0.0006,32.7,,,,,,,
20.64,0.00058,28.49,,,,,,,
20.67,0.00055,24.24,,,,,,,
20.69,0.00052,20.43,,,,,,,
20.72,0.0005,16.39,,,,,,,
20.74,0.00047,12.38,,,,,,,
20.77,0.00045,8.38,,,,,,,
20.8,0.00042,3.84,,,,,,,
20.83,0.0004,-0.37,,,,,,,
20.85,0.00037,-4.54,,,,,,,
20.88,0.00035,-8.74,,,,,,,
20.91,0.00032,-12.95,,,,,,,
20.94,0.0003,-16.44,,,,,,,
21.04,0.00027,-21.5,,,,,,,
21.06,0.00025,-27.67,,,,,,,
21.08,0.00022,-32.33,,,,,,,
21.09,0.00019,-36.38,,,,,,,
21.11,0.00017,-41.19,,,,,,,
21.12,0.00014,-45.61,,,,,,,
21.13,0.00012,-49.03,,,,,,,
21.14,9e-05,-51.96,,,,,,,
21.16,6e-05,-54.46,,,,,,,
21.17,4e-05,-56.64,,,,,,,
21.2,1e-05,-58.35,,,,,,,
21.27,-1e-05,-62.34,,,,,,,
21.3,-4e-05,-67.56,,,,,,,
21.33,-6e-05,-71.7,,,,,,,
21.35,-9e-05,-75.47,,,,,,,
21.37,-0.00011,-78.71,,,,,,,
21.4,-0.00014,-82.02,,,,,,,
21.42,-0.00017,-85.34,,,,,,,
21.46,-0.00019,-89.08,,,,,,,
21.49,-0.00022,-92.97,,,,,,,
21.52,-0.00024,-97.06,,,,,,,
21.54,-0.00027,-100.9,,,,,,,
21.57,-0.00029,-104.4,,,,,,,
21.59,-0.00032,-108.0,,,,,,,
21.62,-0.00034,-111.3,,,,,,,
21.65,-0.00037,-114.8,,,,,,,
21.67,-0.00039,-118.5,,,,,,,
21.7,-0.00042,-121.8,,,,,,,
21.72,-0.00044,-125.2,,,,,,,
21.74,-0.00047,-128.3,,,,,,,
21.75,-0.0005,-130.5,,,,,,,
21.77,-0.00052,-132.4,,,,,,,
21.78,-0.00055,-133.8,,,,,,,
21.79,-0.00057,-135.0,,,,,,,
21.81,-0.0006,-135.9,,,,,,,
21.83,-0.00063,-136.3,,,,,,,
21.9,-0.00065,-139.8,,,,,,,
21.93,-0.00068,-144.6,,,,,,,
21.95,-0.0007,-146.7,,,,,,,
21.96,-0.00073,-147.8,,,,,,,
21.97,-0.00076,-148.7,,,,,,,
21.97,-0.00078,-149.6,,,,,,,
21.98,-0.00081,-150.4,,,,,,,
21.98,-0.00084,-150.8,,,,,,,
21.99,-0.00087,-151.0,,,,,,,
22.0,-0.00089,-150.7,,,,,,,
22.06,-0.00087,-135.8,,,,,,,
22.08,-0.00084,-133.9,,,,,,,
22.1,-0.00082,-134.4,,,,,,,
22.14,-0.00084,-145.8,,,,,,,
22.15,-0.00087,-150.8,,,,,,,
22.16,-0.0009,-154.8,,,,,,,
22.17,-0.00092,-158.0,,,,,,,
22.18,-0.00095,-160.7,,,,,,,
22.19,-0.00097,-161.3,,,,,,,
22.2,-0.001,-162.0,,,,,,,
22.2,-0.00103,-162.6,,,,,,,
22.21,-0.00105,-163.1,,,,,,,
22.21,-0.00108,-163.5,,,,,,,
22.22,-0.00111,-163.7,,,,,,,
22.22,-0.00114,-163.8,,,,,,,
22.22,-0.00116,-163.7,,,,,,,
22.23,-0.00119,-163.1,,,,,,,
22.24,-0.00122,-161.1,,,,,,,
22.27,-0.00119,-144.7,,,,,,,
22.28,-0.00116,-140.2,,,,,,,
22.29,-0.00113,-136.5,,,,,,,
22.3,-0.0011,-133.5,,,,,,,
22.3,-0.00108,-131.3,,,,,,,
22.31,-0.00105,-129.9,,,,,,,
22.33,-0.00103,-129.8,,,,,,,
22.37,-0.00105,-146.5,,,,,,,
22.38,-0.00108,-151.7,,,,,,,
22.39,-0.00111,-155.7,,,,,,,
22.4,-0.00113,-159.5,,,,,,,
22.41,-0.00116,-162.8,,,,,,,
22.41,-0.00119,-165.7,,,,,,,
22.42,-0.00121,-168.1,,,,,,,
22.43,-0.00124,-170.1,,,,,,,
22.44,-0.00127,-171.6,,,,,,,
22.45,-0.00129,-172.1,,,,,,,
22.47,-0.00132,-171.5,,,,,,,
22.61,-0.00134,-172.5,,,,,,,
22.7,-0.00132,-157.2,,,,,,,
22.71,-0.00129,-153.2,,,,,,,
22.73,-0.00126,-149.5,,,,,,,
22.74,-0.00124,-146.2,,,,,,,
22.75,-0.00121,-143.2,,,,,,,
22.77,-0.00119,-140.4,,,,,,,
22.8,-0.00116,-138.0,,,,,,,
22.84,-0.00114,-134.5,,,,,,,
22.89,-0.00111,-128.8,,,,,,,
22.91,-0.00108,-124.0,,,,,,,
22.94,-0.00106,-119.9,,,,,,,
22.96,-0.00103,-116.2,,,,,,,
22.98,-0.00101,-112.5,,,,,,,
23.0,-0.00098,-109.0,,,,,,,
23.03,-0.00096,-105.6,,,,,,,
23.06,-0.00093,-102.0,,,,,,,
23.08,-0.00091,-98.14,,,,,,,
23.12,-0.00088,-93.76,,,,,,,
23.15,-0.00086,-89.29,,,,,,,
23.18,-0.00083,-84.53,,,,,,,
23.2,-0.0008,-80.05,,,,,,,
23.23,-0.00078,-76.15,,,,,,,
23.25,-0.00075,-72.17,,,,,,,
23.27,-0.00073,-68.36,,,,,,,
23.3,-0.0007,-64.34,,,,,,,
23.33,-0.00068,-60.38,,,,,,,
23.35,-0.00065,-56.38,,,,,,,
23.38,-0.00063,-52.39,,,,,,,
23.41,-0.0006,-48.23,,,,,,,
23.44,-0.00057,-44.07,,,,,,,
23.46,-0.00055,-40.08,,,,,,,
23.49,-0.00052,-36.22,,,,,,,
23.51,-0.0005,-32.22,,,,,,,
23.54,-0.00047,-28.19,,,,,,,
23.57,-0.00045,-24.1,,,,,,,
23.6,-0.00042,-19.98,,,,,,,
23.63,-0.0004,-15.83,,,,,,,
23.65,-0.00037,-11.56,,,,,,,
23.68,-0.00034,-7.21,,,,,,,
23.71,-0.00032,-2.83,,,,,,,
23.74,-0.00029,1.48,,,,,,,
23.76,-0.00027,5.27,,,,,,,
23.78,-0.00024,8.99,,,,,,,
23.81,-0.00022,12.61,,,,,,,
23.83,-0.00019,16.33,,,,,,,
23.86,-0.00016,20.06,,,,,,,
23.89,-0.00014,23.59,,,,,,,
23.92,-0.00011,27.41,,,,,,,
23.95,-9e-05,31.02,,,,,,,
48.04,-7e-05,75.1,,,,,,,
48.07,-5e-05,81.19,,,,,,,
48.1,-2e-05,85.53,,,,,,,
48.12,0.0,89.27,,,,,,,
48.14,3e-05,92.77,,,,,,,
48.16,5e-05,95.84,,,,,,,
48.18,8e-05,98.61,,,,,,,
48.21,0.00011,101.78,,,,,,,
48.24,0.00013,105.46,,,,,,,
48.28,0.00016,109.52,,,,,,,
48.31,0.00018,114.06,,,,,,,
48.34,0.00021,118.23,,,,,,,
48.36,0.00023,121.64,,,,,,,
48.38,0.00026,125.01,,,,,,,
48.41,0.00028,128.28,,,,,,,
48.43,0.00031,131.35,,,,,,,
48.46,0.00034,134.51,,,,,,,
48.49,0.00036,137.45,,,,,,,
48.51,0.00039,140.43,,,,,,,
48.54,0.00041,143.3,,,,,,,
48.56,0.00044,145.41,,,,,,,
48.58,0.00046,146.68,,,,,,,
48.59,0.00049,147.59,,,,,,,
48.6,0.00051,148.12,,,,,,,
48.61,0.00054,148.5,,,,,,,
48.62,0.00057,148.67,,,,,,,
48.63,0.00059,148.44,,,,,,,
48.76,0.00062,152.49,,,,,,,
48.78,0.00064,156.9,,,,,,,
48.79,0.00067,158.27,,,,,,,
48.8,0.0007,158.98,,,,,,,
48.81,0.00072,159.29,,,,,,,
48.81,0.00075,159.94,,,,,,,
48.82,0.00078,160.64,,,,,,,
48.82,0.00081,161.28,,,,,,,
48.82,0.00084,161.66,,,,,,,
48.83,0.00086,161.97,,,,,,,
48.83,0.00089,162.19,,,,,,,
48.83,0.00092,162.25,,,,,,,
48.84,0.00095,161.94,,,,,,,
48.85,0.00098,161.02,,,,,,,
48.86,0.001,156.98,,,,,,,
48.88,0.00098,143.98,,,,,,,
48.89,0.00095,138.49,,,,,,,
48.9,0.00092,134.57,,,,,,,
48.9,0.0009,131.0,,,,,,,
48.91,0.00087,128.07,,,,,,,
48.92,0.00084,125.81,,,,,,,
48.92,0.00081,124.03,,,,,,,
48.93,0.00079,123.23,,,,,,,
48.95,0.00076,124.31,,,,,,,
48.98,0.00079,140.48,,,,,,,
48.99,0.00082,145.48,,,,,,,
49.0,0.00084,149.85,,,,,,,
49.01,0.00087,153.46,,,,,,,
49.01,0.00089,156.91,,,,,,,
49.02,0.00092,159.99,,,,,,,
49.03,0.00094,162.62,,,,,,,
49.04,0.00097,165.21,,,,,,,
49.04,0.001,167.35,,,,,,,
49.05,0.00102,169.01,,,,,,,
49.07,0.00105,169.8,,,,,,,
49.2,0.00108,173.07,,,,,,,
49.22,0.0011,177.22,,,,,,,
49.23,0.00113,173.69,,,,,,,
49.23,0.00116,173.98,,,,,,,
49.24,0.00119,174.52,,,,,,,
49.24,0.00122,175.18,,,,,,,
49.24,0.00125,175.51,,,,,,,
49.24,0.00128,175.82,,,,,,,
49.24,0.0013,176.12,,,,,,,
49.25,0.00133,176.35,,,,,,,
49.25,0.00135,176.56,,,,,,,
49.25,0.00139,176.74,,,,,,,
49.25,0.00142,176.72,,,,,,,
49.26,0.00145,176.54,,,,,,,
49.26,0.00148,176.04,,,,,,,
49.26,0.00151,174.98,,,,,,,
49.27,0.00154,172.37,,,,,,,
49.3,0.00151,148.9,,,,,,,
49.3,0.00148,142.81,,,,,,,
49.31,0.00145,137.88,,,,,,,
49.31,0.00142,133.08,,,,,,,
49.32,0.0014,129.46,,,,,,,
49.32,0.00137,126.06,,,,,,,
49.33,0.00134,122.97,,,,,,,
49.33,0.00132,120.19,,,,,,,
49.33,0.00129,117.74,,,,,,,
49.34,0.00127,115.64,,,,,,,
49.34,0.00124,113.62,,,,,,,
49.35,0.00121,112.22,,,,,,,
49.35,0.00118,111.34,,,,,,,
49.36,0.00115,111.38,,,,,,,
49.37,0.00113,113.87,,,,,,,
49.4,0.00115,131.89,,,,,,,
49.41,0.00118,138.25,,,,,,,
49.41,0.00121,142.92,,,,,,,
49.42,0.00124,147.64,,,,,,,
49.42,0.00126,151.24,,,,,,,
49.43,0.00129,154.79,,,,,,,
49.43,0.00131,158.06,,,,,,,
49.44,0.00134,161.04,,,,,,,
49.44,0.00136,163.65,,,,,,,
49.45,0.00139,166.48,,,,,,,
49.46,0.00142,168.68,,,,,,,
49.46,0.00145,170.59,,,,,,,
49.47,0.00148,171.94,,,,,,,
49.48,0.0015,172.43,,,,,,,
49.56,0.00148,159.49,,,,,,,
49.57,0.00145,155.93,,,,,,,
49.59,0.00143,152.59,,,,,,,
49.62,0.0014,149.56,,,,,,,
49.64,0.00137,146.15,,,,,,,
49.67,0.00135,142.63,,,,,,,
49.7,0.00132,139.0,,,,,,,
49.73,0.0013,134.84,,,,,,,
49.76,0.00127,130.38,,,,,,,
49.79,0.00125,126.18,,,,,,,
49.82,0.00122,122.35,,,,,,,
49.84,0.0012,118.93,,,,,,,
49.86,0.00117,115.25,,,,,,,
49.89,0.00115,111.46,,,,,,,
49.92,0.00112,107.7,,,,,,,
49.95,0.0011,103.98,,,,,,,
49.97,0.00107,100.15,,,,,,,
50.0,0.00105,96.23,,,,,,,
50.03,0.00102,92.37,,,,,,,
50.05,0.00099,88.47,,,,,,,
50.08,0.00097,84.36,,,,,,,
50.11,0.00094,80.22,,,,,,,
50.13,0.00092,76.5,,,,,,,
50.16,0.00089,72.9,,,,,,,
50.18,0.00087,69.31,,,,,,,
50.21,0.00084,65.86,,,,,,,
50.24,0.00082,61.56,,,,,,,
50.27,0.00079,56.86,,,,,,,
50.3,0.00077,52.32,,,,,,,
50.33,0.00074,47.78,,,,,,,
50.35,0.00071,43.88,,,,,,,
50.37,0.00069,40.03,,,,,,,
50.4,0.00066,35.86,,,,,,,
50.43,0.00064,31.51,,,,,,,
50.46,0.00061,27.23,,,,,,,
50.48,0.00059,22.95,,,,,,,
50.51,0.00056,19.17,,,,,,,
50.53,0.00054,15.65,,,,,,,
50.55,0.00051,12.06,,,,,,,
50.58,0.00049,8.88,,,,,,,
50.6,0.00046,5.81,,,,,,,
50.63,0.00044,2.44,,,,,,,
50.66,0.00041,-0.94,,,,,,,
50.69,0.00039,-4.5,,,,,,,
50.72,0.00036,-8.54,,,,,,,
50.75,0.00033,-12.84,,,,,,,
50.78,0.00031,-15.86,,,,,,,
50.88,0.00028,-22.33,,,,,,,
50.9,0.00026,-29.14,,,,,,,
50.91,0.00023,-35.04,,,,,,,
50.92,0.00021,-39.4,,,,,,,
50.93,0.00018,-43.0,,,,,,,
50.94,0.00016,-46.16,,,,,,,
50.95,0.00013,-48.7,,,,,,,
50.96,0.0001,-51.04,,,,,,,
50.98,8e-05,-52.95,,,,,,,
51.0,5e-05,-54.1,,,,,,,
51.1,3e-05,-61.03,,,,,,,
51.12,0.0,-66.29,,,,,,,
51.14,-2e-05,-70.64,,,,,,,
51.17,-5e-05,-74.52,,,,,,,
51.19,-7e-05,-78.16,,,,,,,
51.21,-0.0001,-81.35,,,,,,,
51.24,-0.00012,-84.55,,,,,,,
51.27,-0.00015,-88.04,,,,,,,
51.3,-0.00017,-91.75,,,,,,,
51.33,-0.0002,-96.37,,,,,,,
51.36,-0.00023,-100.5,,,,,,,
51.38,-0.00025,-103.9,,,,,,,
51.41,-0.00028,-107.3,,,,,,,
51.43,-0.0003,-110.5,,,,,,,
51.46,-0.00033,-113.8,,,,,,,
51.49,-0.00035,-117.5,,,,,,,
51.52,-0.00038,-121.7,,,,,,,
51.55,-0.0004,-125.9,,,,,,,
51.58,-0.00043,-130.6,,,,,,,
51.6,-0.00046,-135.1,,,,,,,
51.62,-0.00048,-138.9,,,,,,,
51.63,-0.00051,-142.0,,,,,,,
51.65,-0.00054,-144.4,,,,,,,
51.66,-0.00056,-146.0,,,,,,,
51.67,-0.00059,-147.3,,,,,,,
51.68,-0.00061,-148.2,,,,,,,
51.69,-0.00064,-148.7,,,,,,,
51.7,-0.00067,-149.1,,,,,,,
51.71,-0.00069,-149.1,,,,,,,
51.72,-0.00072,-148.2,,,,,,,
51.78,-0.00069,-142.2,,,,,,,
51.84,-0.00072,-151.5,,,,,,,
51.86,-0.00074,-155.6,,,,,,,
51.87,-0.00077,-158.8,,,,,,,
51.88,-0.0008,-159.8,,,,,,,
51.89,-0.00082,-159.5,,,,,,,
51.9,-0.00085,-160.0,,,,,,,
51.9,-0.00088,-160.5,,,,,,,
51.91,-0.00091,-160.9,,,,,,,
51.91,-0.00094,-161.2,,,,,,,
51.91,-0.00097,-161.4,,,,,,,
51.92,-0.001,-161.4,,,,,,,
51.92,-0.00102,-161.2,,,,,,,
51.93,-0.00105,-160.3,,,,,,,
51.97,-0.00102,-139.7,,,,,,,
51.98,-0.001,-135.6,,,,,,,
51.99,-0.00097,-132.1,,,,,,,
52.0,-0.00094,-129.3,,,,,,,
52.0,-0.00092,-127.2,,,,,,,
52.01,-0.00089,-125.9,,,,,,,
52.03,-0.00086,-126.6,,,,,,,
52.07,-0.00089,-141.1,,,,,,,
52.08,-0.00091,-146.2,,,,,,,
52.08,-0.00094,-150.7,,,,,,,
52.09,-0.00097,-154.5,,,,,,,
52.1,-0.001,-157.9,,,,,,,
52.11,-0.00102,-160.9,,,,,,,
52.12,-0.00105,-163.4,,,,,,,
52.12,-0.00107,-165.6,,,,,,,
52.13,-0.0011,-167.4,,,,,,,
52.15,-0.00113,-168.5,,,,,,,
52.17,-0.00115,-168.3,,,,,,,
52.28,-0.00118,-172.3,,,,,,,
52.3,-0.0012,-175.9,,,,,,,
52.32,-0.00123,-174.2,,,,,,,
52.32,-0.00126,-174.7,,,,,,,
52.33,-0.00128,-175.0,,,,,,,
52.33,-0.00131,-174.9,,,,,,,
52.33,-0.00134,-174.6,,,,,,,
52.34,-0.00137,-174.8,,,,,,,
52.34,-0.0014,-175.1,,,,,,,
52.34,-0.00143,-175.2,,,,,,,
52.34,-0.00146,-175.3,,,,,,,
52.35,-0.00149,-175.2,,,,,,,
52.35,-0.00152,-175.0,,,,,,,
52.35,-0.00154,-174.7,,,,,,,
52.36,-0.00157,-174.0,,,,,,,
52.36,-0.0016,-172.2,,,,,,,
52.37,-0.00163,-167.8,,,,,,,
52.39,-0.0016,-148.8,,,,,,,
52.4,-0.00158,-142.6,,,,,,,
52.4,-0.00155,-137.6,,,,,,,
52.41,-0.00152,-132.7,,,,,,,
52.41,-0.00149,-128.1,,,,,,,
52.42,-0.00147,-124.6,,,,,,,
52.42,-0.00144,-121.4,,,,,,,
52.42,-0.00142,-118.6,,,,,,,
52.43,-0.00139,-116.0,,,,,,,
52.43,-0.00136,-113.4,,,,,,,
52.44,-0.00133,-111.5,,,,,,,
52.44,-0.0013,-110.2,,,,,,,
52.45,-0.00128,-109.4,,,,,,,
52.46,-0.00125,-109.5,,,,,,,
52.47,-0.00123,-111.9,,,,,,,
52.5,-0.00125,-130.2,,,,,,,
52.5,-0.00128,-136.4,,,,,,,
52.51,-0.00131,-141.1,,,,,,,
52.51,-0.00134,-145.6,,,,,,,
52.52,-0.00136,-149.3,,,,,,,
52.52,-0.00139,-152.8,,,,,,,
52.53,-0.00141,-155.9,,,,,,,
52.53,-0.00144,-158.8,,,,,,,
52.54,-0.00147,-161.2,,,,,,,
52.54,-0.00149,-163.5,,,,,,,
52.55,-0.00152,-165.0,,,,,,,
52.56,-0.00155,-165.9,,,,,,,
52.57,-0.00158,-165.7,,,,,,,
52.58,-0.0016,-161.3,,,,,,,
52.61,-0.00157,-148.4,,,,,,,
52.61,-0.00155,-142.3,,,,,,,
52.62,-0.00152,-137.5,,,,,,,
52.63,-0.00149,-132.9,,,,,,,
52.63,-0.00147,-129.1,,,,,,,
52.64,-0.00144,-125.5,,,,,,,
52.65,-0.00141,-122.3,,,,,,,
52.65,-0.00139,-119.4,,,,,,,
52.66,-0.00136,-116.5,,,,,,,
52.67,-0.00133,-114.2,,,,,,,
52.67,-0.00131,-112.2,,,,,,,
52.68,-0.00128,-110.7,,,,,,,
52.7,-0.00126,-110.3,,,,,,,
52.78,-0.00128,-115.5,,,,,,,
52.83,-0.00126,-104.4,,,,,,,
52.85,-0.00123,-99.72,,,,,,,
52.86,-0.0012,-95.7,,,,,,,
52.88,-0.00118,-92.39,,,,,,,
52.89,-0.00115,-89.25,,,,,,,
52.9,-0.00113,-86.45,,,,,,,
52.92,-0.0011,-83.8,,,,,,,
52.95,-0.00108,-81.18,,,,,,,
52.99,-0.00105,-77.8,,,,,,,
53.03,-0.00103,-73.15,,,,,,,
53.06,-0.001,-68.64,,,,,,,
53.08,-0.00098,-64.36,,,,,,,
53.11,-0.00095,-60.44,,,,,,,
53.13,-0.00092,-56.62,,,,,,,
53.16,-0.0009,-52.68,,,,,,,
53.18,-0.00087,-48.71,,,,,,,
53.21,-0.00085,-45.03,,,,,,,
53.24,-0.00082,-41.36,,,,,,,
53.26,-0.0008,-37.75,,,,,,,
53.29,-0.00077,-34.02,,,,,,,
53.32,-0.00075,-29.34,,,,,,,
53.35,-0.00072,-24.7,,,,,,,
53.38,-0.0007,-20.46,,,,,,,
53.4,-0.00067,-16.28,,,,,,,
53.43,-0.00064,-11.91,,,,,,,
53.46,-0.00062,-7.77,,,,,,,
53.48,-0.00059,-3.27,,,,,,,
53.51,-0.00057,0.89,,,,,,,
53.54,-0.00054,5.18,,,,,,,
53.56,-0.00052,9.07,,,,,,,
53.59,-0.00049,13.08,,,,,,,
53.61,-0.00047,16.94,,,,,,,
53.64,-0.00044,20.86,,,,,,,
53.66,-0.00041,24.22,,,,,,,
53.69,-0.00039,27.85,,,,,,,
53.72,-0.00036,31.62,,,,,,,
53.75,-0.00034,33.6,,,,,,,
53.85,-0.00031,43.12,,,,,,,
53.87,-0.00029,49.65,,,,,,,
53.88,-0.00026,54.85,,,,,,,
53.89,-0.00023,58.85,,,,,,,
53.9,-0.00021,62.54,,,,,,,
53.91,-0.00018,65.61,,,,,,,
53.92,-0.00015,68.09,,,,,,,
53.93,-0.00013,70.2,,,,,,,
53.95,-0.0001,71.8,,,,,,,
53.98,-8e-05,72.26,,,,,,,
108.19,-7e-05,39.91,,,,,,,
108.21,-4e-05,46.71,,,,,,,
108.22,-1e-05,52.15,,,,,,,
108.23,1e-05,56.04,,,,,,,
108.24,4e-05,59.64,,,,,,,
108.25,6e-05,62.9,,,,,,,
108.26,9e-05,65.55,,,,,,,
108.27,0.00011,68.06,,,,,,,
108.29,0.00014,69.97,,,,,,,
108.31,0.00017,71.52,,,,,,,
108.39,0.00019,75.06,,,,,,,
108.43,0.00022,80.55,,,,,,,
108.45,0.00024,84.92,,,,,,,
108.48,0.00027,88.93,,,,,,,
108.5,0.00029,92.75,,,,,,,
108.52,0.00032,96.21,,,,,,,
108.55,0.00034,99.47,,,,,,,
108.58,0.00037,103.04,,,,,,,
108.61,0.0004,106.44,,,,,,,
108.64,0.00042,109.98,,,,,,,
108.67,0.00045,113.77,,,,,,,
108.7,0.00047,117.55,,,,,,,
108.72,0.0005,121.3,,,,,,,
108.75,0.00052,125.11,,,,,,,
108.77,0.00055,128.44,,,,,,,
108.8,0.00057,131.59,,,,,,,
108.83,0.0006,134.85,,,,,,,
108.85,0.00062,138.13,,,,,,,
108.88,0.00065,141.38,,,,,,,
108.91,0.00068,144.72,,,,,,,
108.94,0.0007,148.25,,,,,,,
108.96,0.00073,151.42,,,,,,,
108.99,0.00075,154.96,,,,,,,
109.01,0.00078,158.43,,,,,,,
109.03,0.0008,160.7,,,,,,,
109.05,0.00083,162.19,,,,,,,
109.06,0.00085,163.39,,,,,,,
109.07,0.00088,164.56,,,,,,,
109.07,0.00091,165.53,,,,,,,
109.08,0.00093,166.28,,,,,,,
109.1,0.00096,166.67,,,,,,,
109.12,0.00098,166.03,,,,,,,
109.23,0.00101,171.26,,,,,,,
109.25,0.00103,175.06,,,,,,,
109.26,0.00106,175.37,,,,,,,
109.27,0.00109,176.76,,,,,,,
109.28,0.00112,177.78,,,,,,,
109.28,0.00115,178.56,,,,,,,
109.29,0.00117,179.01,,,,,,,
109.3,0.0012,178.85,,,,,,,
109.3,0.00123,177.88,,,,,,,
109.31,0.00125,177.55,,,,,,,
109.32,0.00128,176.91,,,,,,,
109.33,0.00131,174.78,,,,,,,
109.37,0.00128,164.18,,,,,,,
109.38,0.00125,160.9,,,,,,,
109.4,0.00123,158.71,,,,,,,
109.42,0.0012,158.49,,,,,,,
109.47,0.00123,168.9,,,,,,,
109.48,0.00125,173.15,,,,,,,
109.49,0.00128,176.82,,,,,,,
109.5,0.0013,180.11,,,,,,,
109.52,0.00133,182.96,,,,,,,
109.53,0.00136,185.59,,,,,,,
109.54,0.00138,187.68,,,,,,,
109.56,0.00141,188.28,,,,,,,
109.57,0.00143,188.33,,,,,,,
109.58,0.00146,188.28,,,,,,,
109.59,0.00149,188.31,,,,,,,
109.59,0.00151,188.2,,,,,,,
109.6,0.00154,187.9,,,,,,,
109.61,0.00156,186.83,,,,,,,
109.66,0.00154,171.1,,,,,,,
109.67,0.00151,166.44,,,,,,,
109.68,0.00149,162.3,,,,,,,
109.69,0.00146,158.5,,,,,,,
109.7,0.00143,155.09,,,,,,,
109.71,0.00141,152.1,,,,,,,
109.72,0.00138,149.41,,,,,,,
109.74,0.00136,146.69,,,,,,,
109.75,0.00133,144.46,,,,,,,
109.79,0.0013,142.0,,,,,,,
109.85,0.00128,136.45,,,,,,,
109.86,0.00127,134.49,,,,,,,
109.88,0.00125,131.03,,,,,,,
109.91,0.00123,126.65,,,,,,,
109.93,0.0012,122.56,,,,,,,
109.95,0.00118,118.72,,,,,,,
109.98,0.00115,114.84,,,,,,,
110.0,0.00113,110.84,,,,,,,
110.03,0.0011,106.73,,,,,,,
110.06,0.00108,102.79,,,,,,,
110.09,0.00105,98.71,,,,,,,
110.12,0.00102,94.47,,,,,,,
110.14,0.001,90.26,,,,,,,
110.17,0.00097,86.22,,,,,,,
110.2,0.00095,82.22,,,,,,,
110.22,0.00092,78.23,,,,,,,
110.25,0.0009,74.15,,,,,,,
110.28,0.00087,70.01,,,,,,,
110.3,0.00085,66.04,,,,,,,
110.33,0.00082,62.06,,,,,,,
110.36,0.0008,58.01,,,,,,,
110.38,0.00077,54.22,,,,,,,
110.41,0.00074,50.16,,,,,,,
110.44,0.00072,45.95,,,,,,,
110.46,0.00069,41.84,,,,,,,
110.49,0.00067,37.8,,,,,,,
110.52,0.00064,33.95,,,,,,,
110.54,0.00062,29.96,,,,,,,
110.57,0.00059,25.79,,,,,,,
110.6,0.00057,21.85,,,,,,,
110.62,0.00054,18.07,,,,,,,
110.65,0.00052,14.5,,,,,,,
110.67,0.00049,10.91,,,,,,,
110.7,0.00046,7.14,,,,,,,
110.73,0.00044,3.47,,,,,,,
110.76,0.00041,-0.28,,,,,,,
110.78,0.00039,-3.98,,,,,,,
110.81,0.00036,-7.54,,,,,,,
110.84,0.00034,-10.95,,,,,,,
110.86,0.00031,-14.06,,,,,,,
110.89,0.00028,-15.07,,,,,,,
111.0,0.00026,-24.34,,,,,,,
111.01,0.00023,-30.08,,,,,,,
111.03,0.00021,-35.01,,,,,,,
111.04,0.00018,-38.84,,,,,,,
111.05,0.00015,-42.26,,,,,,,
111.06,0.00013,-45.13,,,,,,,
111.07,0.0001,-47.53,,,,,,,
111.09,8e-05,-49.63,,,,,,,
111.11,5e-05,-51.33,,,,,,,
111.16,3e-05,-53.29,,,,,,,
111.21,0.0,-58.71,,,,,,,
111.24,-2e-05,-63.21,,,,,,,
111.27,-5e-05,-67.19,,,,,,,
111.29,-8e-05,-70.97,,,,,,,
111.32,-0.0001,-74.48,,,,,,,
111.34,-0.00013,-78.14,,,,,,,
111.37,-0.00015,-81.86,,,,,,,
111.4,-0.00018,-85.53,,,,,,,
111.43,-0.0002,-89.06,,,,,,,
111.46,-0.00023,-92.11,,,,,,,
111.48,-0.00026,-95.09,,,,,,,
111.51,-0.00028,-98.11,,,,,,,
111.54,-0.00031,-101.5,,,,,,,
111.57,-0.00033,-105.4,,,,,,,
111.6,-0.00036,-109.2,,,,,,,
111.63,-0.00038,-112.5,,,,,,,
111.65,-0.00041,-115.4,,,,,,,
111.67,-0.00043,-118.2,,,,,,,
111.7,-0.00046,-121.2,,,,,,,
111.72,-0.00048,-124.8,,,,,,,
111.75,-0.00051,-128.7,,,,,,,
111.77,-0.00054,-132.8,,,,,,,
111.8,-0.00056,-136.9,,,,,,,
111.82,-0.00059,-140.8,,,,,,,
111.84,-0.00061,-144.4,,,,,,,
111.86,-0.00064,-148.0,,,,,,,
111.88,-0.00066,-151.4,,,,,,,
111.9,-0.00069,-154.1,,,,,,,
111.91,-0.00072,-155.9,,,,,,,
111.92,-0.00074,-157.2,,,,,,,
111.93,-0.00077,-158.2,,,,,,,
111.94,-0.00079,-159.1,,,,,,,
111.95,-0.00082,-159.6,,,,,,,
111.96,-0.00085,-160.0,,,,,,,
112.08,-0.00087,-161.5,,,,,,,
112.11,-0.0009,-166.2,,,,,,,
112.13,-0.00092,-169.8,,,,,,,
112.15,-0.00095,-170.3,,,,,,,
112.16,-0.00098,-171.4,,,,,,,
112.16,-0.001,-172.1,,,,,,,
112.17,-0.00103,-172.1,,,,,,,
112.17,-0.00106,-171.8,,,,,,,
112.18,-0.00108,-172.1,,,,,,,
112.19,-0.00111,-172.3,,,,,,,
112.19,-0.00114,-172.3,,,,,,,
112.2,-0.00117,-172.1,,,,,,,
112.2,-0.00119,-171.6,,,,,,,
112.21,-0.00122,-170.1,,,,,,,
112.25,-0.00119,-157.0,,,,,,,
112.26,-0.00116,-153.2,,,,,,,
112.27,-0.00114,-150.1,,,,,,,
112.28,-0.00111,-147.9,,,,,,,
112.29,-0.00109,-146.7,,,,,,,
112.36,-0.00111,-162.1,,,,,,,
112.37,-0.00114,-166.3,,,,,,,
112.38,-0.00116,-170.0,,,,,,,
112.39,-0.00119,-173.3,,,,,,,
112.4,-0.00122,-176.1,,,,,,,
112.42,-0.00124,-178.8,,,,,,,
112.43,-0.00127,-181.2,,,,,,,
112.45,-0.00129,-183.0,,,,,,,
112.47,-0.00132,-184.5,,,,,,,
112.5,-0.00134,-185.7,,,,,,,
112.54,-0.00137,-187.2,,,,,,,
112.56,-0.00139,-185.7,,,,,,,
112.57,-0.00142,-186.1,,,,,,,
112.58,-0.00145,-186.5,,,,,,,
112.58,-0.00148,-186.8,,,,,,,
112.59,-0.0015,-187.1,,,,,,,
112.6,-0.00153,-187.0,,,,,,,
112.61,-0.00156,-186.3,,,,,,,
112.66,-0.00153,-171.6,,,,,,,
112.67,-0.0015,-166.9,,,,,,,
112.68,-0.00148,-162.8,,,,,,,
112.69,-0.00145,-159.0,,,,,,,
112.71,-0.00143,-155.5,,,,,,,
112.72,-0.0014,-152.3,,,,,,,
112.73,-0.00137,-149.3,,,,,,,
112.75,-0.00135,-146.6,,,,,,,
112.77,-0.00132,-144.1,,,,,,,
112.81,-0.0013,-140.6,,,,,,,
112.86,-0.00127,-134.8,,,,,,,
112.89,-0.00125,-129.9,,,,,,,
112.91,-0.00122,-125.9,,,,,,,
112.94,-0.0012,-122.1,,,,,,,
112.96,-0.00117,-118.3,,,,,,,
112.98,-0.00115,-114.4,,,,,,,
113.01,-0.00112,-110.9,,,,,,,
113.03,-0.00109,-107.3,,,,,,,
113.06,-0.00107,-103.6,,,,,,,
113.09,-0.00104,-99.39,,,,,,,
113.12,-0.00102,-94.97,,,,,,,
113.15,-0.00099,-90.48,,,,,,,
113.18,-0.00097,-86.18,,,,,,,
113.21,-0.00094,-81.7,,,,,,,
113.23,-0.00092,-77.68,,,,,,,
113.26,-0.00089,-73.57,,,,,,,
113.28,-0.00087,-69.44,,,,,,,
113.31,-0.00084,-65.4,,,,,,,
113.34,-0.00081,-61.09,,,,,,,
113.36,-0.00079,-57.11,,,,,,,
113.39,-0.00076,-53.23,,,,,,,
113.42,-0.00074,-49.23,,,,,,,
113.44,-0.00071,-45.5,,,,,,,
113.47,-0.00069,-41.4,,,,,,,
113.49,-0.00066,-37.65,,,,,,,
113.52,-0.00064,-34.23,,,,,,,
113.54,-0.00061,-30.43,,,,,,,
113.57,-0.00059,-26.82,,,,,,,
113.6,-0.00056,-23.15,,,,,,,
113.62,-0.00053,-19.4,,,,,,,
113.65,-0.00051,-15.48,,,,,,,
113.68,-0.00048,-11.6,,,,,,,
113.71,-0.00046,-8.08,,,,,,,
113.73,-0.00043,-4.52,,,,,,,
113.76,-0.00041,-0.91,,,,,,,
113.78,-0.00038,2.65,,,,,,,
113.81,-0.00036,6.04,,,,,,,
113.84,-0.00033,9.52,,,,,,,
113.86,-0.0003,13.01,,,,,,,
113.89,-0.00028,16.72,,,,,,,
113.92,-0.00025,20.94,,,,,,,
113.95,-0.00023,24.6,,,,,,,
113.98,-0.0002,28.4,,,,,,,
114.0,-0.00018,31.68,,,,,,,
114.03,-0.00015,33.44,,,,,,,
288.38,-7e-05,33.23,,,,,,,
288.42,-5e-05,33.64,,,,,,,
288.51,-2e-05,45.03,,,,,,,
288.52,0.0,50.32,,,,,,,
288.53,3e-05,54.54,,,,,,,
288.54,6e-05,58.09,,,,,,,
288.55,8e-05,61.38,,,,,,,
288.56,0.00011,64.36,,,,,,,
288.58,0.00014,66.93,,,,,,,
288.59,0.00016,69.06,,,,,,,
288.61,0.00019,70.98,,,,,,,
288.66,0.00021,73.13,,,,,,,
288.71,0.00024,77.82,,,,,,,
288.75,0.00026,82.37,,,,,,,
288.77,0.00029,86.14,,,,,,,
288.8,0.00032,89.7,,,,,,,
288.82,0.00034,93.08,,,,,,,
288.85,0.00037,96.44,,,,,,,
288.87,0.00039,99.46,,,,,,,
288.9,0.00042,102.75,,,,,,,
288.93,0.00044,105.71,,,,,,,
288.96,0.00047,108.78,,,,,,,
288.99,0.0005,112.02,,,,,,,
289.01,0.00052,115.37,,,,,,,
289.04,0.00055,118.88,,,,,,,
289.07,0.00057,122.21,,,,,,,
289.1,0.0006,125.87,,,,,,,
289.13,0.00062,129.22,,,,,,,
289.15,0.00065,132.56,,,,,,,
289.18,0.00067,135.86,,,,,,,
289.21,0.0007,139.08,,,,,,,
289.23,0.00072,142.39,,,,,,,
289.26,0.00075,145.69,,,,,,,
289.29,0.00078,149.05,,,,,,,
289.31,0.0008,152.3,,,,,,,
289.34,0.00083,156.11,,,,,,,
289.36,0.00085,159.72,,,,,,,
289.38,0.00088,163.28,,,,,,,
289.4,0.0009,166.69,,,,,,,
289.42,0.00093,169.88,,,,,,,
289.44,0.00095,172.69,,,,,,,
289.46,0.00098,174.74,,,,,,,
289.48,0.001,175.66,,,,,,,
289.49,0.00103,176.64,,,,,,,
289.5,0.00106,177.51,,,,,,,
289.5,0.00108,178.35,,,,,,,
289.51,0.00111,178.9,,,,,,,
289.53,0.00114,179.0,,,,,,,
289.54,0.00116,178.48,,,,,,,
289.67,0.00119,181.05,,,,,,,
289.69,0.00121,184.76,,,,,,,
289.71,0.00124,188.11,,,,,,,
289.73,0.00126,189.6,,,,,,,
289.75,0.00129,191.04,,,,,,,
289.76,0.00132,192.08,,,,,,,
289.77,0.00134,190.2,,,,,,,
289.78,0.00137,190.78,,,,,,,
289.79,0.0014,191.14,,,,,,,
289.79,0.00143,191.42,,,,,,,
289.8,0.00146,191.38,,,,,,,
289.82,0.00148,190.22,,,,,,,
289.86,0.00146,183.56,,,,,,,
289.87,0.00146,182.49,,,,,,,
289.96,0.00143,177.88,,,,,,,
290.0,0.00141,171.12,,,,,,,
290.03,0.00138,166.4,,,,,,,
290.05,0.00136,162.09,,,,,,,
290.07,0.00133,158.16,,,,,,,
290.09,0.0013,154.37,,,,,,,
290.11,0.00128,150.5,,,,,,,
290.14,0.00125,146.75,,,,,,,
290.17,0.00123,142.83,,,,,,,
290.2,0.0012,138.62,,,,,,,
290.23,0.00118,134.32,,,,,,,
290.25,0.00115,130.18,,,,,,,
290.28,0.00113,125.97,,,,,,,
290.31,0.0011,121.77,,,,,,,
290.33,0.00107,117.73,,,,,,,
290.36,0.00105,113.68,,,,,,,
290.39,0.00102,109.36,,,,,,,
290.42,0.001,105.42,,,,,,,
290.44,0.00097,101.21,,,,,,,
290.47,0.00095,97.4,,,,,,,
290.5,0.00092,93.43,,,,,,,
290.52,0.0009,89.29,,,,,,,
290.55,0.00087,85.1,,,,,,,
290.58,0.00085,81.1,,,,,,,
290.6,0.00082,76.87,,,,,,,
290.63,0.00079,72.86,,,,,,,
290.66,0.00077,68.94,,,,,,,
290.68,0.00074,64.97,,,,,,,
290.71,0.00072,61.08,,,,,,,
290.73,0.00069,57.28,,,,,,,
290.76,0.00067,53.51,,,,,,,
290.79,0.00064,49.52,,,,,,,
290.81,0.00062,45.83,,,,,,,
290.84,0.00059,41.92,,,,,,,
290.87,0.00057,38.12,,,,,,,
290.89,0.00054,34.4,,,,,,,
290.92,0.00051,30.51,,,,,,,
290.95,0.00049,26.79,,,,,,,
290.97,0.00046,23.08,,,,,,,
291.0,0.00044,19.39,,,,,,,
291.03,0.00041,15.66,,,,,,,
291.05,0.00039,11.87,,,,,,,
291.08,0.00036,8.25,,,,,,,
291.11,0.00034,4.25,,,,,,,
291.14,0.00031,0.38,,,,,,,
291.17,0.00028,-3.52,,,,,,,
291.19,0.00026,-7.57,,,,,,,
291.22,0.00023,-11.48,,,,,,,
291.25,0.00021,-15.03,,,,,,,
291.29,0.00018,-16.0,,,,,,,
291.38,0.00016,-25.68,,,,,,,
291.39,0.00013,-31.5,,,,,,,
291.41,0.00011,-36.48,,,,,,,
291.42,8e-05,-40.29,,,,,,,
291.43,5e-05,-43.78,,,,,,,
291.44,3e-05,-46.76,,,,,,,
291.45,0.0,-49.27,,,,,,,
291.46,-2e-05,-51.37,,,,,,,
291.48,-5e-05,-53.32,,,,,,,
291.53,-8e-05,-55.54,,,,,,,
291.58,-0.0001,-60.13,,,,,,,
291.62,-0.00013,-64.7,,,,,,,
291.64,-0.00015,-68.55,,,,,,,
291.67,-0.00018,-72.13,,,,,,,
291.69,-0.0002,-75.85,,,,,,,
291.72,-0.00023,-79.31,,,,,,,
291.75,-0.00025,-82.68,,,,,,,
291.78,-0.00028,-86.55,,,,,,,
291.81,-0.0003,-90.21,,,,,,,
291.83,-0.00033,-93.67,,,,,,,
291.86,-0.00035,-97.4,,,,,,,
291.89,-0.00038,-100.7,,,,,,,
291.91,-0.00041,-103.8,,,,,,,
291.94,-0.00043,-107.2,,,,,,,
291.97,-0.00046,-110.6,,,,,,,
292.0,-0.00048,-114.0,,,,,,,
292.03,-0.00051,-117.8,,,,,,,
292.06,-0.00053,-121.4,,,,,,,
292.08,-0.00056,-124.7,,,,,,,
292.1,-0.00058,-128.3,,,,,,,
292.12,-0.00061,-131.9,,,,,,,
292.14,-0.00063,-135.5,,,,,,,
292.16,-0.00066,-139.0,,,,,,,
292.18,-0.00069,-142.3,,,,,,,
292.2,-0.00071,-145.8,,,,,,,
292.22,-0.00074,-149.2,,,,,,,
292.25,-0.00076,-152.6,,,,,,,
292.27,-0.00079,-155.7,,,,,,,
292.29,-0.00081,-158.8,,,,,,,
292.31,-0.00084,-161.8,,,,,,,
292.33,-0.00086,-164.6,,,,,,,
292.35,-0.00089,-167.3,,,,,,,
292.38,-0.00092,-169.9,,,,,,,
292.4,-0.00094,-171.8,,,,,,,
292.41,-0.00097,-172.8,,,,,,,
292.43,-0.00099,-173.6,,,,,,,
292.44,-0.00102,-174.3,,,,,,,
292.45,-0.00105,-174.6,,,,,,,
292.46,-0.00107,-174.8,,,,,,,
292.49,-0.0011,-174.3,,,,,,,
292.6,-0.00113,-177.0,,,,,,,
292.62,-0.00115,-180.8,,,,,,,
292.64,-0.00118,-184.0,,,,,,,
292.66,-0.0012,-185.3,,,,,,,
292.67,-0.00123,-186.3,,,,,,,
292.68,-0.00126,-186.6,,,,,,,
292.69,-0.00128,-186.8,,,,,,,
292.7,-0.00131,-187.2,,,,,,,
292.71,-0.00134,-187.4,,,,,,,
292.73,-0.00136,-186.8,,,,,,,
292.86,-0.00139,-188.7,,,,,,,
292.88,-0.00141,-192.3,,,,,,,
292.9,-0.00144,-194.8,,,,,,,
292.92,-0.00146,-193.9,,,,,,,
292.95,-0.00149,-191.5,,,,,,,
292.99,-0.00146,-180.1,,,,,,,
293.0,-0.00144,-174.9,,,,,,,
293.02,-0.00141,-170.8,,,,,,,
293.03,-0.00139,-167.0,,,,,,,
293.04,-0.00136,-163.4,,,,,,,
293.05,-0.00133,-160.0,,,,,,,
293.07,-0.00131,-156.6,,,,,,,
293.09,-0.00128,-153.4,,,,,,,
293.12,-0.00126,-149.8,,,,,,,
293.16,-0.00123,-145.4,,,,,,,
293.2,-0.0012,-140.3,,,,,,,
293.22,-0.00118,-135.8,,,,,,,
293.25,-0.00115,-131.4,,,,,,,
293.28,-0.00113,-127.0,,,,,,,
293.3,-0.0011,-122.9,,,,,,,
293.33,-0.00108,-118.8,,,,,,,
293.35,-0.00105,-115.1,,,,,,,
293.38,-0.00103,-111.4,,,,,,,
293.4,-0.001,-107.4,,,,,,,
293.43,-0.00097,-103.2,,,,,,,
293.46,-0.00095,-99.23,,,,,,,
293.49,-0.00092,-95.12,,,,,,,
293.51,-0.0009,-91.22,,,,,,,
293.54,-0.00087,-87.32,,,,,,,
293.57,-0.00085,-83.35,,,,,,,
293.59,-0.00082,-79.46,,,,,,,
293.62,-0.0008,-75.48,,,,,,,
293.65,-0.00077,-71.51,,,,,,,
293.67,-0.00075,-67.67,,,,,,,
293.7,-0.00072,-63.43,,,,,,,
293.73,-0.0007,-59.08,,,,,,,
293.76,-0.00067,-54.35,,,,,,,
293.79,-0.00064,-49.87,,,,,,,
293.81,-0.00062,-46.03,,,,,,,
293.84,-0.00059,-42.36,,,,,,,
293.86,-0.00057,-38.86,,,,,,,
293.88,-0.00054,-35.78,,,,,,,
293.9,-0.00052,-32.63,,,,,,,
293.93,-0.00049,-28.91,,,,,,,
293.97,-0.00046,-24.55,,,,,,,
294.0,-0.00044,-20.23,,,,,,,
294.03,-0.00041,-16.16,,,,,,,
294.05,-0.00039,-12.17,,,,,,,
294.08,-0.00036,-8.25,,,,,,,
294.1,-0.00034,-4.64,,,,,,,
294.13,-0.00031,-1.14,,,,,,,
294.15,-0.00029,2.56,,,,,,,
294.18,-0.00026,6.32,,,,,,,
294.21,-0.00024,10.25,,,,,,,
294.24,-0.00021,13.9,,,,,,,
294.26,-0.00019,17.77,,,,,,,
294.29,-0.00016,21.44,,,,,,,
294.32,-0.00013,25.09,,,,,,,
294.34,-0.00011,28.73,,,,,,,
294.37,-8e-05,31.89,,,,,,,
588.83,-8e-05,80.48,,,,,,,
588.86,-6e-05,84.69,,,,,,,
588.88,-3e-05,88.33,,,,,,,
588.91,-1e-05,91.75,,,,,,,
588.93,2e-05,94.9,,,,,,,
588.95,4e-05,97.86,,,,,,,
588.98,7e-05,100.95,,,,,,,
589.01,9e-05,104.1,,,,,,,
589.04,0.00012,107.64,,,,,,,
589.07,0.00015,111.1,,,,,,,
589.1,0.00017,114.51,,,,,,,
589.13,0.0002,117.93,,,,,,,
589.15,0.00022,121.15,,,,,,,
589.18,0.00025,124.47,,,,,,,
589.21,0.00027,127.77,,,,,,,
589.24,0.0003,131.05,,,,,,,
589.26,0.00032,134.24,,,,,,,
589.29,0.00035,137.42,,,,,,,
589.32,0.00037,140.45,,,,,,,
589.34,0.0004,143.4,,,,,,,
589.37,0.00043,146.37,,,,,,,
589.39,0.00045,149.23,,,,,,,
589.42,0.00048,152.15,,,,,,,
589.44,0.0005,155.39,,,,,,,
589.46,0.00053,158.6,,,,,,,
589.48,0.00055,161.75,,,,,,,
589.51,0.00058,164.95,,,,,,,
589.53,0.00061,168.07,,,,,,,
589.55,0.00063,170.88,,,,,,,
589.57,0.00066,173.67,,,,,,,
589.59,0.00068,176.56,,,,,,,
589.61,0.00071,179.0,,,,,,,
589.63,0.00074,177.87,,,,,,,
589.64,0.00076,178.26,,,,,,,
589.64,0.00079,178.65,,,,,,,
589.65,0.00082,178.96,,,,,,,
589.65,0.00086,179.25,,,,,,,
589.65,0.0009,179.53,,,,,,,
589.66,0.00093,179.7,,,,,,,
589.66,0.00096,179.76,,,,,,,
589.66,0.00099,179.72,,,,,,,
589.67,0.00102,179.44,,,,,,,
589.67,0.00104,178.75,,,,,,,
589.68,0.00107,176.3,,,,,,,
589.71,0.00105,158.73,,,,,,,
589.72,0.00102,153.31,,,,,,,
589.72,0.00099,149.03,,,,,,,
589.73,0.00097,145.52,,,,,,,
589.73,0.00094,142.4,,,,,,,
589.74,0.00091,139.79,,,,,,,
589.75,0.00089,137.25,,,,,,,
589.75,0.00086,135.31,,,,,,,
589.76,0.00083,134.08,,,,,,,
589.78,0.00081,134.38,,,,,,,
589.82,0.00083,148.93,,,,,,,
589.83,0.00086,153.48,,,,,,,
589.84,0.00089,157.62,,,,,,,
589.85,0.00091,161.34,,,,,,,
589.85,0.00094,164.43,,,,,,,
589.86,0.00097,167.15,,,,,,,
589.86,0.00097,167.48,,,,,,,
589.87,0.00099,169.79,,,,,,,
589.88,0.00102,172.02,,,,,,,
589.89,0.00104,173.89,,,,,,,
589.91,0.00107,175.48,,,,,,,
589.93,0.0011,176.09,,,,,,,
590.02,0.00112,178.74,,,,,,,
590.05,0.00115,183.01,,,,,,,
590.07,0.00117,186.53,,,,,,,
590.09,0.0012,189.74,,,,,,,
590.11,0.00122,192.71,,,,,,,
590.13,0.00125,192.33,,,,,,,
590.14,0.00128,193.51,,,,,,,
590.15,0.0013,194.18,,,,,,,
590.15,0.00133,194.74,,,,,,,
590.16,0.00136,195.24,,,,,,,
590.17,0.00139,195.36,,,,,,,
590.33,0.00141,195.72,,,,,,,
590.35,0.00144,198.05,,,,,,,
590.37,0.00146,198.45,,,,,,,
590.44,0.00144,179.77,,,,,,,
590.46,0.00141,175.28,,,,,,,
590.47,0.00139,171.33,,,,,,,
590.48,0.00136,167.84,,,,,,,
590.49,0.00133,164.53,,,,,,,
590.51,0.00131,161.51,,,,,,,
590.52,0.00128,158.57,,,,,,,
590.55,0.00126,155.66,,,,,,,
590.59,0.00123,151.54,,,,,,,
590.63,0.00121,146.13,,,,,,,
590.66,0.00118,141.16,,,,,,,
590.69,0.00116,136.78,,,,,,,
590.71,0.00113,132.69,,,,,,,
590.73,0.00111,128.75,,,,,,,
590.76,0.00108,125.14,,,,,,,
590.78,0.00105,121.12,,,,,,,
590.81,0.00103,117.04,,,,,,,
590.84,0.001,113.21,,,,,,,
590.87,0.00098,109.18,,,,,,,
590.89,0.00095,105.2,,,,,,,
590.92,0.00093,101.27,,,,,,,
590.95,0.0009,97.19,,,,,,,
590.97,0.00088,93.27,,,,,,,
591.0,0.00085,89.43,,,,,,,
591.03,0.00083,85.6,,,,,,,
591.05,0.0008,81.84,,,,,,,
591.08,0.00077,78.07,,,,,,,
591.1,0.00075,74.41,,,,,,,
591.13,0.00072,70.41,,,,,,,
591.16,0.0007,66.51,,,,,,,
591.19,0.00067,62.45,,,,,,,
591.22,0.00065,58.2,,,,,,,
591.24,0.00062,54.1,,,,,,,
591.27,0.0006,50.06,,,,,,,
591.3,0.00057,45.97,,,,,,,
591.32,0.00054,42.03,,,,,,,
591.35,0.00052,37.86,,,,,,,
591.38,0.00049,33.7,,,,,,,
591.4,0.00047,29.89,,,,,,,
591.43,0.00044,26.02,,,,,,,
591.45,0.00042,22.44,,,,,,,
591.48,0.00039,19.16,,,,,,,
591.5,0.00037,15.78,,,,,,,
591.53,0.00034,12.44,,,,,,,
591.55,0.00032,9.07,,,,,,,
591.58,0.00029,5.52,,,,,,,
591.61,0.00026,1.78,,,,,,,
591.64,0.00024,-2.08,,,,,,,
591.67,0.00021,-5.86,,,,,,,
591.7,0.00019,-9.41,,,,,,,
591.72,0.00016,-12.94,,,,,,,
591.75,0.00014,-15.51,,,,,,,
591.86,0.00011,-21.0,,,,,,,
591.88,9e-05,-27.41,,,,,,,
591.89,6e-05,-32.85,,,,,,,
591.9,4e-05,-36.98,,,,,,,
591.91,1e-05,-40.79,,,,,,,
591.92,-2e-05,-43.79,,,,,,,
591.93,-4e-05,-46.67,,,,,,,
591.95,-7e-05,-48.97,,,,,,,
591.96,-0.0001,-50.83,,,,,,,
591.98,-0.00012,-52.23,,,,,,,
592.06,-0.00015,-55.54,,,,,,,
592.1,-0.00017,-60.79,,,,,,,
592.12,-0.0002,-64.81,,,,,,,
592.14,-0.00022,-68.42,,,,,,,
592.17,-0.00025,-71.77,,,,,,,
592.19,-0.00027,-74.78,,,,,,,
592.22,-0.0003,-77.9,,,,,,,
592.25,-0.00032,-81.28,,,,,,,
592.28,-0.00035,-84.85,,,,,,,
592.31,-0.00037,-88.58,,,,,,,
592.34,-0.0004,-92.34,,,,,,,
592.37,-0.00043,-95.74,,,,,,,
592.39,-0.00045,-99.18,,,,,,,
592.42,-0.00048,-102.9,,,,,,,
592.45,-0.0005,-106.2,,,,,,,
592.47,-0.00053,-109.5,,,,,,,
592.5,-0.00055,-112.6,,,,,,,
592.53,-0.00058,-115.9,,,,,,,
592.55,-0.0006,-119.1,,,,,,,
592.58,-0.00063,-122.4,,,,,,,
592.61,-0.00065,-126.1,,,,,,,
592.63,-0.00068,-130.1,,,,,,,
592.65,-0.00071,-133.8,,,,,,,
592.67,-0.00073,-137.4,,,,,,,
592.69,-0.00076,-140.7,,,,,,,
592.71,-0.00078,-143.8,,,,,,,
592.73,-0.00081,-146.9,,,,,,,
592.75,-0.00083,-150.2,,,,,,,
592.77,-0.00086,-153.3,,,,,,,
592.79,-0.00088,-156.3,,,,,,,
592.82,-0.00091,-159.6,,,,,,,
592.84,-0.00093,-162.8,,,,,,,
592.86,-0.00096,-165.8,,,,,,,
592.88,-0.00099,-168.8,,,,,,,
592.91,-0.00101,-171.6,,,,,,,
592.93,-0.00104,-174.3,,,,,,,
592.95,-0.00106,-176.6,,,,,,,
592.97,-0.00109,-177.9,,,,,,,
592.99,-0.00111,-178.6,,,,,,,
593.0,-0.00114,-179.6,,,,,,,
593.01,-0.00117,-180.3,,,,,,,
593.03,-0.00119,-180.8,,,,,,,
593.09,-0.00122,-180.3,,,,,,,
593.14,-0.00124,-183.2,,,,,,,
593.17,-0.00127,-186.6,,,,,,,
593.19,-0.00129,-189.5,,,,,,,
593.21,-0.00132,-191.1,,,,,,,
593.22,-0.00135,-190.2,,,,,,,
593.22,-0.00137,-190.8,,,,,,,
593.23,-0.00141,-191.2,,,,,,,
593.23,-0.00143,-191.5,,,,,,,
593.24,-0.00146,-191.7,,,,,,,
593.24,-0.00149,-191.9,,,,,,,
593.24,-0.00151,-192.0,,,,,,,
593.25,-0.00154,-191.9,,,,,,,
593.25,-0.00157,-191.6,,,,,,,
593.26,-0.0016,-190.8,,,,,,,
593.27,-0.00162,-186.8,,,,,,,
593.29,-0.0016,-174.8,,,,,,,
593.3,-0.00157,-169.8,,,,,,,
593.31,-0.00155,-165.5,,,,,,,
593.32,-0.00152,-161.9,,,,,,,
593.32,-0.00149,-158.7,,,,,,,
593.33,-0.00147,-156.1,,,,,,,
593.34,-0.00144,-153.8,,,,,,,
593.35,-0.00142,-151.9,,,,,,,
593.37,-0.00139,-150.5,,,,,,,
593.49,-0.00136,-143.4,,,,,,,
593.51,-0.00134,-138.5,,,,,,,
593.54,-0.00131,-134.0,,,,,,,
593.55,-0.00129,-130.2,,,,,,,
593.57,-0.00126,-126.5,,,,,,,
593.59,-0.00124,-123.1,,,,,,,
593.62,-0.00121,-119.8,,,,,,,
593.64,-0.00119,-116.5,,,,,,,
593.67,-0.00116,-113.1,,,,,,,
593.7,-0.00113,-109.1,,,,,,,
593.73,-0.00111,-105.1,,,,,,,
593.76,-0.00108,-101.1,,,,,,,
593.78,-0.00106,-97.39,,,,,,,
593.81,-0.00103,-93.73,,,,,,,
593.83,-0.00101,-90.15,,,,,,,
593.86,-0.00098,-86.26,,,,,,,
593.89,-0.00096,-82.08,,,,,,,
593.92,-0.00093,-78.02,,,,,,,
593.95,-0.0009,-73.94,,,,,,,
593.97,-0.00088,-70.23,,,,,,,
594.0,-0.00085,-66.46,,,,,,,
594.02,-0.00083,-62.68,,,,,,,
594.05,-0.0008,-58.86,,,,,,,
594.08,-0.00078,-55.3,,,,,,,
594.1,-0.00075,-51.39,,,,,,,
594.13,-0.00073,-47.59,,,,,,,
594.16,-0.0007,-43.78,,,,,,,
594.19,-0.00068,-39.87,,,,,,,
594.21,-0.00065,-35.84,,,,,,,
594.24,-0.00062,-31.52,,,,,,,
594.27,-0.0006,-27.36,,,,,,,
594.3,-0.00057,-23.33,,,,,,,
594.32,-0.00055,-19.66,,,,,,,
594.34,-0.00052,-15.87,,,,,,,
594.37,-0.0005,-11.95,,,,,,,
594.4,-0.00047,-8.27,,,,,,,
594.42,-0.00045,-4.53,,,,,,,
594.45,-0.00042,-0.52,,,,,,,
594.48,-0.0004,3.36,,,,,,,
594.51,-0.00037,7.33,,,,,,,
594.54,-0.00034,11.4,,,,,,,
594.56,-0.00032,15.51,,,,,,,
594.59,-0.00029,19.79,,,,,,,
594.62,-0.00027,24.02,,,,,,,
594.65,-0.00024,27.91,,,,,,,
594.67,-0.00022,31.68,,,,,,,
594.7,-0.00019,34.57,,,,,,,
1189.7,-6e-05,28.09,,,,,,,
1189.73,-4e-05,31.28,,,,,,,
1189.76,-1e-05,33.84,,,,,,,
1189.86,1e-05,41.09,,,,,,,
1189.87,2e-05,42.71,,,,,,,
1189.88,4e-05,48.9,,,,,,,
1189.89,7e-05,53.4,,,,,,,
1189.9,9e-05,57.21,,,,,,,
1189.91,0.00012,60.77,,,,,,,
1189.92,0.00015,63.76,,,,,,,
1189.93,0.00017,66.51,,,,,,,
1189.95,0.0002,68.93,,,,,,,
1189.96,0.00023,70.84,,,,,,,
1189.99,0.00025,72.22,,,,,,,
1190.07,0.00028,77.7,,,,,,,
1190.11,0.0003,82.89,,,,,,,
1190.13,0.00033,87.09,,,,,,,
1190.15,0.00035,90.89,,,,,,,
1190.18,0.00038,94.52,,,,,,,
1190.2,0.00041,98.02,,,,,,,
1190.23,0.00043,101.16,,,,,,,
1190.25,0.00046,104.48,,,,,,,
1190.28,0.00048,107.96,,,,,,,
1190.32,0.00051,111.61,,,,,,,
1190.34,0.00053,114.94,,,,,,,
1190.37,0.00056,118.34,,,,,,,
1190.4,0.00058,121.85,,,,,,,
1190.43,0.00061,125.55,,,,,,,
1190.45,0.00063,129.0,,,,,,,
1190.48,0.00066,132.64,,,,,,,
1190.51,0.00068,136.15,,,,,,,
1190.54,0.00071,139.74,,,,,,,
1190.57,0.00074,143.7,,,,,,,
1190.59,0.00076,147.43,,,,,,,
1190.62,0.00079,150.81,,,,,,,
1190.64,0.00081,154.31,,,,,,,
1190.67,0.00084,157.9,,,,,,,
1190.69,0.00086,161.43,,,,,,,
1190.71,0.00089,165.17,,,,,,,
1190.74,0.00091,168.73,,,,,,,
1190.76,0.00094,172.1,,,,,,,
1190.78,0.00097,175.32,,,,,,,
1190.79,0.00099,178.04,,,,,,,
1190.81,0.00102,179.51,,,,,,,
1190.83,0.00104,181.99,,,,,,,
1190.85,0.00107,184.52,,,,,,,
1190.87,0.00109,186.88,,,,,,,
1190.89,0.00112,188.14,,,,,,,
1190.9,0.00114,189.02,,,,,,,
1190.91,0.00117,189.65,,,,,,,
1190.92,0.0012,190.12,,,,,,,
1190.93,0.00122,190.41,,,,,,,
1190.95,0.00125,189.96,,,,,,,
1191.07,0.00128,190.72,,,,,,,
1191.09,0.0013,194.09,,,,,,,
1191.11,0.00133,197.37,,,,,,,
1191.13,0.00135,199.01,,,,,,,
1191.14,0.00138,200.34,,,,,,,
1191.15,0.00141,200.86,,,,,,,
1191.15,0.00144,198.9,,,,,,,
1191.16,0.00146,199.22,,,,,,,
1191.17,0.00149,199.49,,,,,,,
1191.18,0.00151,199.42,,,,,,,
1191.19,0.00154,198.84,,,,,,,
1191.24,0.00151,184.36,,,,,,,
1191.26,0.00149,179.7,,,,,,,
1191.27,0.00146,175.54,,,,,,,
1191.28,0.00144,171.73,,,,,,,
1191.3,0.00141,168.2,,,,,,,
1191.31,0.00138,165.0,,,,,,,
1191.33,0.00136,161.91,,,,,,,
1191.35,0.00133,158.92,,,,,,,
1191.39,0.00131,154.96,,,,,,,
1191.43,0.00128,149.4,,,,,,,
1191.46,0.00126,144.38,,,,,,,
1191.49,0.00123,139.83,,,,,,,
1191.51,0.0012,135.63,,,,,,,
1191.54,0.00118,131.41,,,,,,,
1191.56,0.00115,127.5,,,,,,,
1191.59,0.00113,123.54,,,,,,,
1191.62,0.0011,119.53,,,,,,,
1191.64,0.00108,115.6,,,,,,,
1191.67,0.00105,110.97,,,,,,,
1191.7,0.00103,106.67,,,,,,,
1191.73,0.001,102.63,,,,,,,
1191.75,0.00098,98.74,,,,,,,
1191.78,0.00095,94.82,,,,,,,
1191.8,0.00092,90.97,,,,,,,
1191.83,0.0009,87.06,,,,,,,
1191.86,0.00087,83.2,,,,,,,
1191.88,0.00085,79.24,,,,,,,
1191.91,0.00082,75.21,,,,,,,
1191.94,0.0008,71.21,,,,,,,
1191.96,0.00077,67.18,,,,,,,
1191.99,0.00075,63.33,,,,,,,
1192.02,0.00072,59.59,,,,,,,
1192.04,0.0007,55.59,,,,,,,
1192.07,0.00067,51.8,,,,,,,
1192.1,0.00065,47.83,,,,,,,
1192.13,0.00062,43.85,,,,,,,
1192.15,0.00059,39.75,,,,,,,
1192.18,0.00057,35.61,,,,,,,
1192.21,0.00054,31.45,,,,,,,
1192.23,0.00052,27.72,,,,,,,
1192.26,0.00049,23.75,,,,,,,
1192.29,0.00047,19.76,,,,,,,
1192.31,0.00044,15.78,,,,,,,
1192.34,0.00042,12.28,,,,,,,
1192.36,0.00039,8.88,,,,,,,
1192.39,0.00037,5.23,,,,,,,
1192.42,0.00034,1.7,,,,,,,
1192.45,0.00031,-2.21,,,,,,,
1192.47,0.00029,-6.19,,,,,,,
1192.5,0.00026,-9.93,,,,,,,
1192.53,0.00024,-13.57,,,,,,,
1192.55,0.00021,-15.99,,,,,,,
1192.66,0.00019,-21.75,,,,,,,
1192.68,0.00016,-28.07,,,,,,,
1192.69,0.00013,-33.45,,,,,,,
1192.71,0.00011,-37.79,,,,,,,
1192.72,8e-05,-41.36,,,,,,,
1192.73,5e-05,-44.59,,,,,,,
1192.74,3e-05,-47.36,,,,,,,
1192.75,0.0,-49.66,,,,,,,
1192.77,-2e-05,-51.56,,,,,,,
1192.81,-5e-05,-53.34,,,,,,,
1192.86,-7e-05,-57.21,,,,,,,
1192.9,-0.0001,-61.15,,,,,,,
1192.92,-0.00012,-65.06,,,,,,,
1192.95,-0.00015,-68.61,,,,,,,
1192.98,-0.00018,-72.23,,,,,,,
1193.0,-0.0002,-75.9,,,,,,,
1193.03,-0.00023,-79.61,,,,,,,
1193.06,-0.00025,-83.58,,,,,,,
1193.09,-0.00028,-87.45,,,,,,,
1193.12,-0.0003,-91.17,,,,,,,
1193.15,-0.00033,-94.8,,,,,,,
1193.17,-0.00035,-98.22,,,,,,,
1193.2,-0.00038,-101.8,,,,,,,
1193.23,-0.00041,-105.5,,,,,,,
1193.26,-0.00043,-109.2,,,,,,,
1193.29,-0.00046,-112.8,,,,,,,
1193.31,-0.00048,-116.2,,,,,,,
1193.34,-0.00051,-119.5,,,,,,,
1193.37,-0.00053,-123.1,,,,,,,
1193.39,-0.00056,-126.5,,,,,,,
1193.41,-0.00058,-130.1,,,,,,,
1193.43,-0.00061,-133.9,,,,,,,
1193.45,-0.00063,-137.3,,,,,,,
1193.47,-0.00066,-140.6,,,,,,,
1193.49,-0.00069,-143.9,,,,,,,
1193.51,-0.00071,-146.9,,,,,,,
1193.53,-0.00074,-150.0,,,,,,,
1193.55,-0.00076,-153.1,,,,,,,
1193.57,-0.00079,-156.1,,,,,,,
1193.6,-0.00081,-159.0,,,,,,,
1193.62,-0.00084,-161.9,,,,,,,
1193.64,-0.00086,-165.0,,,,,,,
1193.67,-0.00089,-167.8,,,,,,,
1193.69,-0.00092,-170.8,,,,,,,
1193.72,-0.00094,-173.6,,,,,,,
1193.74,-0.00097,-175.9,,,,,,,
1193.76,-0.00099,-177.3,,,,,,,
1193.78,-0.00102,-179.1,,,,,,,
1193.8,-0.00104,-180.9,,,,,,,
1193.81,-0.00107,-182.0,,,,,,,
1193.83,-0.0011,-182.4,,,,,,,
1193.84,-0.00112,-182.8,,,,,,,
1193.85,-0.00115,-183.0,,,,,,,
1193.86,-0.00118,-182.8,,,,,,,
1194.0,-0.0012,-183.6,,,,,,,
1194.02,-0.00123,-187.4,,,,,,,
1194.04,-0.00125,-190.8,,,,,,,
1194.06,-0.00128,-193.7,,,,,,,
1194.07,-0.00131,-194.8,,,,,,,
1194.08,-0.00134,-195.4,,,,,,,
1194.09,-0.00136,-195.8,,,,,,,
1194.09,-0.00139,-196.0,,,,,,,
1194.1,-0.00142,-196.1,,,,,,,
1194.11,-0.00145,-195.7,,,,,,,
1194.12,-0.00147,-194.6,,,,,,,
1194.18,-0.00145,-185.3,,,,,,,
1194.31,-0.00142,-178.6,,,,,,,
1194.34,-0.00139,-173.2,,,,,,,
1194.36,-0.00137,-168.2,,,,,,,
1194.38,-0.00134,-163.9,,,,,,,
1194.4,-0.00132,-160.0,,,,,,,
1194.42,-0.00129,-156.4,,,,,,,
1194.44,-0.00127,-153.1,,,,,,,
1194.46,-0.00124,-149.6,,,,,,,
1194.5,-0.00122,-145.4,,,,,,,
1194.53,-0.00119,-140.5,,,,,,,
1194.56,-0.00117,-135.8,,,,,,,
1194.59,-0.00114,-131.5,,,,,,,
1194.61,-0.00111,-127.4,,,,,,,
1194.64,-0.00109,-123.4,,,,,,,
1194.66,-0.00106,-119.4,,,,,,,
1194.69,-0.00104,-115.7,,,,,,,
1194.71,-0.00101,-111.9,,,,,,,
1194.74,-0.00099,-107.6,,,,,,,
1194.77,-0.00096,-103.1,,,,,,,
1194.8,-0.00094,-98.67,,,,,,,
1194.83,-0.00091,-94.64,,,,,,,
1194.85,-0.00089,-90.47,,,,,,,
1194.88,-0.00086,-86.64,,,,,,,
1194.9,-0.00083,-82.45,,,,,,,
1194.93,-0.00081,-78.43,,,,,,,
1194.96,-0.00078,-74.71,,,,,,,
1194.98,-0.00076,-71.03,,,,,,,
1195.01,-0.00073,-67.16,,,,,,,
1195.04,-0.00071,-62.98,,,,,,,
1195.07,-0.00068,-58.61,,,,,,,
1195.09,-0.00066,-54.36,,,,,,,
1195.12,-0.00063,-50.08,,,,,,,
1195.15,-0.00061,-45.83,,,,,,,
1195.17,-0.00058,-41.86,,,,,,,
1195.2,-0.00055,-38.1,,,,,,,
1195.22,-0.00053,-34.09,,,,,,,
1195.25,-0.0005,-30.24,,,,,,,
1195.28,-0.00048,-26.56,,,,,,,
1195.3,-0.00045,-22.7,,,,,,,
1195.33,-0.00043,-19.11,,,,,,,
1195.35,-0.0004,-15.54,,,,,,,
1195.38,-0.00038,-12.23,,,,,,,
1195.4,-0.00035,-8.78,,,,,,,
1195.43,-0.00032,-5.43,,,,,,,
1195.46,-0.0003,-1.27,,,,,,,
1195.49,-0.00027,2.7,,,,,,,
1195.52,-0.00025,6.68,,,,,,,
1195.54,-0.00022,10.3,,,,,,,
1195.57,-0.0002,13.89,,,,,,,
1195.59,-0.00017,17.14,,,,,,,
1195.61,-0.00015,20.37,,,,,,,
1195.64,-0.00012,23.42,,,,,,,
1195.67,-9e-05,26.78,,,,,,,
2992.34,-6e-05,32.12,,,,,,,
2992.37,-4e-05,34.01,,,,,,,
2992.48,-1e-05,43.51,,,,,,,
2992.49,1e-05,49.15,,,,,,,
2992.5,4e-05,53.46,,,,,,,
2992.51,6e-05,57.14,,,,,,,
2992.52,9e-05,60.54,,,,,,,
2992.53,0.00012,63.68,,,,,,,
2992.54,0.00015,66.48,,,,,,,
2992.55,0.00017,68.72,,,,,,,
2992.57,0.0002,70.53,,,,,,,
2992.6,0.00022,71.94,,,,,,,
2992.68,0.00025,76.14,,,,,,,
2992.71,0.00027,80.91,,,,,,,
2992.74,0.0003,85.03,,,,,,,
2992.76,0.00032,88.64,,,,,,,
2992.78,0.00035,92.09,,,,,,,
2992.81,0.00038,95.3,,,,,,,
2992.83,0.0004,98.46,,,,,,,
2992.86,0.00043,101.78,,,,,,,
2992.89,0.00045,105.38,,,,,,,
2992.92,0.00048,109.01,,,,,,,
2992.95,0.0005,112.77,,,,,,,
2992.98,0.00053,116.27,,,,,,,
2993.01,0.00055,119.71,,,,,,,
2993.03,0.00058,123.2,,,,,,,
2993.06,0.0006,126.48,,,,,,,
2993.09,0.00063,129.62,,,,,,,
2993.11,0.00066,132.85,,,,,,,
2993.14,0.00068,136.32,,,,,,,
2993.17,0.00071,139.6,,,,,,,
2993.2,0.00073,143.07,,,,,,,
2993.23,0.00076,146.69,,,,,,,
2993.25,0.00078,150.1,,,,,,,
2993.28,0.00081,153.71,,,,,,,
2993.31,0.00083,157.77,,,,,,,
2993.33,0.00086,161.67,,,,,,,
2993.35,0.00088,165.48,,,,,,,
2993.37,0.00091,169.07,,,,,,,
2993.39,0.00094,172.56,,,,,,,
2993.41,0.00096,175.94,,,,,,,
2993.43,0.00099,179.35,,,,,,,
2993.46,0.00101,181.7,,,,,,,
2993.48,0.00104,184.01,,,,,,,
2993.5,0.00106,186.61,,,,,,,
2993.51,0.00109,188.8,,,,,,,
2993.53,0.00112,189.07,,,,,,,
2993.53,0.00114,189.7,,,,,,,
2993.54,0.00117,190.26,,,,,,,
2993.54,0.00119,190.69,,,,,,,
2993.55,0.00122,191.02,,,,,,,
2993.56,0.00125,191.14,,,,,,,
2993.57,0.00127,190.38,,,,,,,
2993.62,0.00125,180.92,,,,,,,
2993.65,0.00122,179.59,,,,,,,
2993.71,0.00125,188.25,,,,,,,
2993.72,0.00127,192.2,,,,,,,
2993.74,0.0013,195.62,,,,,,,
2993.75,0.00132,198.73,,,,,,,
2993.77,0.00135,201.58,,,,,,,
2993.78,0.00138,199.99,,,,,,,
2993.79,0.0014,201.09,,,,,,,
2993.8,0.00143,201.94,,,,,,,
2993.81,0.00145,202.58,,,,,,,
2993.82,0.00148,203.17,,,,,,,
2993.83,0.00151,202.95,,,,,,,
2993.9,0.00148,191.13,,,,,,,
2993.92,0.00145,186.36,,,,,,,
2993.93,0.00143,182.31,,,,,,,
2993.95,0.0014,178.62,,,,,,,
2993.96,0.00138,175.02,,,,,,,
2993.99,0.00135,171.4,,,,,,,
2994.01,0.00133,167.92,,,,,,,
2994.04,0.0013,163.57,,,,,,,
2994.08,0.00128,158.89,,,,,,,
2994.11,0.00125,154.2,,,,,,,
2994.13,0.00122,149.68,,,,,,,
2994.16,0.0012,145.4,,,,,,,
2994.18,0.00117,141.14,,,,,,,
2994.21,0.00115,137.09,,,,,,,
2994.24,0.00112,132.87,,,,,,,
2994.26,0.0011,128.6,,,,,,,
2994.29,0.00107,124.34,,,,,,,
2994.32,0.00105,120.1,,,,,,,
2994.34,0.00102,116.03,,,,,,,
2994.37,0.001,112.05,,,,,,,
2994.4,0.00097,108.23,,,,,,,
2994.42,0.00095,104.29,,,,,,,
2994.45,0.00092,100.38,,,,,,,
2994.48,0.0009,96.44,,,,,,,
2994.5,0.00087,92.33,,,,,,,
2994.53,0.00084,88.32,,,,,,,
2994.56,0.00082,84.5,,,,,,,
2994.58,0.00079,80.55,,,,,,,
2994.61,0.00077,76.77,,,,,,,
2994.64,0.00074,72.89,,,,,,,
2994.66,0.00072,68.88,,,,,,,
2994.69,0.00069,65.14,,,,,,,
2994.72,0.00067,61.13,,,,,,,
2994.74,0.00064,57.34,,,,,,,
2994.77,0.00061,53.58,,,,,,,
2994.79,0.00059,49.75,,,,,,,
2994.82,0.00056,45.9,,,,,,,
2994.85,0.00054,41.93,,,,,,,
2994.88,0.00051,37.79,,,,,,,
2994.91,0.00049,33.88,,,,,,,
2994.93,0.00046,30.36,,,,,,,
2994.95,0.00044,27.03,,,,,,,
2994.98,0.00041,23.8,,,,,,,
2995.0,0.00039,20.56,,,,,,,
2995.03,0.00036,17.04,,,,,,,
2995.06,0.00033,13.48,,,,,,,
2995.09,0.00031,9.77,,,,,,,
2995.12,0.00028,5.87,,,,,,,
2995.14,0.00026,2.27,,,,,,,
2995.17,0.00023,-1.48,,,,,,,
2995.2,0.00021,-5.2,,,,,,,
2995.22,0.00018,-8.74,,,,,,,
2995.25,0.00016,-12.05,,,,,,,
2995.28,0.00013,-15.04,,,,,,,
2995.32,0.00011,-14.56,,,,,,,
2995.4,8e-05,-23.54,,,,,,,
2995.42,6e-05,-28.86,,,,,,,
2995.43,3e-05,-33.53,,,,,,,
2995.44,0.0,-37.62,,,,,,,
2995.45,-2e-05,-40.91,,,,,,,
2995.46,-5e-05,-43.74,,,,,,,
2995.47,-7e-05,-46.2,,,,,,,
2995.49,-0.0001,-48.21,,,,,,,
2995.51,-0.00012,-49.96,,,,,,,
2995.55,-0.00015,-51.52,,,,,,,
2995.61,-0.00017,-55.59,,,,,,,
2995.64,-0.0002,-59.99,,,,,,,
2995.67,-0.00022,-64.06,,,,,,,
2995.69,-0.00025,-67.5,,,,,,,
2995.71,-0.00027,-70.82,,,,,,,
2995.74,-0.0003,-73.91,,,,,,,
2995.77,-0.00033,-77.14,,,,,,,
2995.8,-0.00035,-80.42,,,,,,,
2995.83,-0.00038,-84.13,,,,,,,
2995.86,-0.0004,-88.02,,,,,,,
2995.89,-0.00043,-91.57,,,,,,,
2995.92,-0.00045,-95.19,,,,,,,
2995.94,-0.00048,-98.81,,,,,,,
2995.97,-0.0005,-102.2,,,,,,,
2996.0,-0.00053,-105.7,,,,,,,
2996.02,-0.00055,-109.0,,,,,,,
2996.05,-0.00058,-111.8,,,,,,,
2996.07,-0.0006,-114.7,,,,,,,
2996.1,-0.00063,-118.0,,,,,,,
2996.13,-0.00066,-121.1,,,,,,,
2996.15,-0.00068,-124.9,,,,,,,
2996.18,-0.00071,-128.7,,,,,,,
2996.2,-0.00073,-132.4,,,,,,,
2996.22,-0.00076,-136.2,,,,,,,
2996.24,-0.00079,-139.9,,,,,,,
2996.26,-0.00081,-143.2,,,,,,,
2996.28,-0.00084,-146.6,,,,,,,
2996.3,-0.00086,-150.3,,,,,,,
2996.33,-0.00089,-154.0,,,,,,,
2996.35,-0.00091,-157.6,,,,,,,
2996.37,-0.00094,-160.9,,,,,,,
2996.39,-0.00096,-163.7,,,,,,,
2996.41,-0.00099,-166.6,,,,,,,
2996.43,-0.00101,-169.4,,,,,,,
2996.45,-0.00104,-172.0,,,,,,,
2996.48,-0.00107,-175.0,,,,,,,
2996.51,-0.00109,-177.7,,,,,,,
2996.53,-0.00112,-179.0,,,,,,,
2996.55,-0.00114,-180.9,,,,,,,
2996.57,-0.00117,-182.4,,,,,,,
2996.58,-0.00119,-183.7,,,,,,,
2996.6,-0.00122,-184.9,,,,,,,
2996.63,-0.00124,-185.9,,,,,,,
2996.68,-0.00127,-188.3,,,,,,,
2996.72,-0.00129,-192.1,,,,,,,
2996.74,-0.00132,-195.0,,,,,,,
2996.76,-0.00135,-195.4,,,,,,,
2996.77,-0.00138,-196.0,,,,,,,
2996.77,-0.00141,-196.2,,,,,,,
2996.77,-0.00143,-196.3,,,,,,,
2996.78,-0.00146,-196.4,,,,,,,
2996.79,-0.00149,-196.0,,,,,,,
2996.79,-0.00152,-195.8,,,,,,,
2996.81,-0.00154,-193.1,,,,,,,
2996.85,-0.00152,-184.7,,,,,,,
2996.86,-0.00149,-180.8,,,,,,,
2996.88,-0.00146,-177.0,,,,,,,
2996.9,-0.00144,-173.4,,,,,,,
2996.93,-0.00141,-169.5,,,,,,,
2996.96,-0.00139,-164.6,,,,,,,
2997.0,-0.00136,-159.2,,,,,,,
2997.02,-0.00134,-154.7,,,,,,,
2997.05,-0.00131,-150.6,,,,,,,
2997.07,-0.00129,-146.6,,,,,,,
2997.09,-0.00126,-142.9,,,,,,,
2997.12,-0.00124,-139.2,,,,,,,
2997.14,-0.00121,-135.5,,,,,,,
2997.17,-0.00118,-132.0,,,,,,,
2997.19,-0.00116,-128.5,,,,,,,
2997.22,-0.00113,-124.7,,,,,,,
2997.25,-0.00111,-120.6,,,,,,,
2997.28,-0.00108,-116.3,,,,,,,
2997.31,-0.00106,-111.9,,,,,,,
2997.34,-0.00103,-107.4,,,,,,,
2997.37,-0.00101,-102.8,,,,,,,
2997.4,-0.00098,-98.19,,,,,,,
2997.43,-0.00096,-93.45,,,,,,,
2997.45,-0.00093,-89.3,,,,,,,
2997.47,-0.0009,-85.16,,,,,,,
2997.5,-0.00088,-81.35,,,,,,,
2997.53,-0.00085,-77.29,,,,,,,
2997.55,-0.00083,-73.01,,,,,,,
2997.58,-0.0008,-68.88,,,,,,,
2997.61,-0.00078,-65.07,,,,,,,
2997.63,-0.00075,-61.08,,,,,,,
2997.66,-0.00072,-57.52,,,,,,,
2997.68,-0.0007,-53.82,,,,,,,
2997.71,-0.00067,-49.59,,,,,,,
2997.74,-0.00065,-45.4,,,,,,,
2997.77,-0.00062,-41.35,,,,,,,
2997.79,-0.0006,-37.31,,,,,,,
2997.82,-0.00057,-33.32,,,,,,,
2997.85,-0.00055,-29.4,,,,,,,
2997.88,-0.00052,-25.18,,,,,,,
2997.9,-0.0005,-20.98,,,,,,,
2997.93,-0.00047,-17.07,,,,,,,
2997.95,-0.00045,-13.51,,,,,,,
2997.98,-0.00042,-9.81,,,,,,,
2998.0,-0.0004,-6.48,,,,,,,
2998.03,-0.00037,-3.04,,,,,,,
2998.05,-0.00034,0.27,,,,,,,
2998.08,-0.00032,3.49,,,,,,,
2998.1,-0.00029,6.87,,,,,,,
2998.13,-0.00027,10.49,,,,,,,
2998.16,-0.00024,13.63,,,,,,,
2998.18,-0.00022,16.79,,,,,,,
2998.21,-0.00019,20.24,,,,,,,
2998.24,-0.00017,24.1,,,,,,,
2998.27,-0.00014,27.76,,,,,,,
2998.3,-0.00012,31.21,,,,,,,
2998.33,-9e-05,33.31,,,,,,,
5996.73,-8e-05,33.25,,,,,,,
5996.77,-6e-05,33.94,,,,,,,
5996.86,-3e-05,46.21,,,,,,,
5996.88,-0.0,51.2,,,,,,,
5996.89,2e-05,55.07,,,,,,,
5996.9,5e-05,58.74,,,,,,,
5996.91,7e-05,62.08,,,,,,,
5996.92,0.0001,64.87,,,,,,,
5996.93,0.00013,67.55,,,,,,,
5996.94,0.00015,69.62,,,,,,,
5996.96,0.00018,71.36,,,,,,,
5997.0,0.0002,72.66,,,,,,,
5997.07,0.00023,78.35,,,,,,,
5997.1,0.00025,82.72,,,,,,,
5997.13,0.00028,86.72,,,,,,,
5997.15,0.0003,90.2,,,,,,,
5997.17,0.00033,93.5,,,,,,,
5997.2,0.00036,96.74,,,,,,,
5997.22,0.00038,100.08,,,,,,,
5997.25,0.00041,103.49,,,,,,,
5997.28,0.00043,106.98,,,,,,,
5997.31,0.00046,110.77,,,,,,,
5997.34,0.00048,114.18,,,,,,,
5997.37,0.00051,117.74,,,,,,,
5997.4,0.00053,121.47,,,,,,,
5997.42,0.00056,125.11,,,,,,,
5997.45,0.00058,128.63,,,,,,,
5997.48,0.00061,131.91,,,,,,,
5997.5,0.00063,135.03,,,,,,,
5997.53,0.00066,138.04,,,,,,,
5997.55,0.00069,140.96,,,,,,,
5997.58,0.00071,143.89,,,,,,,
5997.61,0.00074,147.58,,,,,,,
5997.64,0.00076,151.31,,,,,,,
5997.67,0.00079,155.48,,,,,,,
5997.7,0.00081,159.78,,,,,,,
5997.72,0.00084,163.86,,,,,,,
5997.74,0.00086,167.67,,,,,,,
5997.76,0.00089,171.07,,,,,,,
5997.78,0.00091,174.33,,,,,,,
5997.79,0.00094,177.62,,,,,,,
5997.82,0.00097,180.7,,,,,,,
5997.84,0.00099,183.67,,,,,,,
5997.86,0.00102,186.03,,,,,,,
5997.88,0.00104,187.65,,,,,,,
5997.88,0.00107,187.92,,,,,,,
5997.89,0.0011,188.69,,,,,,,
5997.9,0.00113,189.22,,,,,,,
5997.9,0.00116,189.66,,,,,,,
5997.91,0.00119,189.89,,,,,,,
5997.92,0.00121,189.52,,,,,,,
5997.99,0.00119,179.16,,,,,,,
5998.07,0.00121,188.41,,,,,,,
5998.09,0.00124,191.92,,,,,,,
5998.1,0.00126,194.99,,,,,,,
5998.12,0.00129,197.98,,,,,,,
5998.13,0.00131,200.59,,,,,,,
5998.15,0.00134,200.94,,,,,,,
5998.15,0.00137,201.58,,,,,,,
5998.16,0.0014,202.13,,,,,,,
5998.16,0.00143,202.5,,,,,,,
5998.17,0.00145,202.85,,,,,,,
5998.18,0.00148,202.87,,,,,,,
5998.19,0.00151,201.61,,,,,,,
5998.24,0.00148,192.78,,,,,,,
5998.26,0.00145,189.92,,,,,,,
5998.29,0.00143,187.46,,,,,,,
5998.34,0.0014,182.43,,,,,,,
5998.38,0.00138,177.32,,,,,,,
5998.41,0.00135,172.53,,,,,,,
5998.43,0.00133,168.44,,,,,,,
5998.45,0.0013,164.63,,,,,,,
5998.48,0.00128,160.93,,,,,,,
5998.5,0.00125,157.4,,,,,,,
5998.52,0.00123,153.69,,,,,,,
5998.55,0.0012,150.04,,,,,,,
5998.58,0.00118,146.16,,,,,,,
5998.61,0.00115,142.24,,,,,,,
5998.64,0.00113,138.26,,,,,,,
5998.67,0.0011,134.26,,,,,,,
5998.69,0.00108,130.3,,,,,,,
5998.72,0.00105,126.39,,,,,,,
5998.74,0.00102,122.7,,,,,,,
5998.77,0.001,118.96,,,,,,,
5998.79,0.00097,115.39,,,,,,,
5998.82,0.00095,111.73,,,,,,,
5998.85,0.00092,108.25,,,,,,,
5998.87,0.0009,104.68,,,,,,,
5998.9,0.00087,100.87,,,,,,,
5998.93,0.00085,97.17,,,,,,,
5998.96,0.00082,93.6,,,,,,,
5998.98,0.0008,89.88,,,,,,,
5999.01,0.00077,86.29,,,,,,,
5999.03,0.00074,82.63,,,,,,,
5999.06,0.00072,78.93,,,,,,,
5999.09,0.00069,75.49,,,,,,,
5999.11,0.00067,71.85,,,,,,,
5999.14,0.00064,68.03,,,,,,,
5999.17,0.00062,64.06,,,,,,,
5999.2,0.00059,60.02,,,,,,,
5999.23,0.00057,56.09,,,,,,,
5999.25,0.00054,52.05,,,,,,,
5999.28,0.00051,48.15,,,,,,,
5999.3,0.00049,44.33,,,,,,,
5999.33,0.00046,40.72,,,,,,,
5999.36,0.00044,36.71,,,,,,,
5999.39,0.00041,32.76,,,,,,,
5999.41,0.00039,28.68,,,,,,,
5999.44,0.00036,24.48,,,,,,,
5999.47,0.00034,20.18,,,,,,,
5999.5,0.00031,15.58,,,,,,,
5999.53,0.00028,11.29,,,,,,,
5999.56,0.00026,6.82,,,,,,,
5999.58,0.00023,2.59,,,,,,,
5999.61,0.00021,-1.37,,,,,,,
5999.63,0.00018,-5.48,,,,,,,
5999.66,0.00016,-9.56,,,,,,,
5999.69,0.00013,-13.84,,,,,,,
5999.72,0.00011,-17.31,,,,,,,
5999.83,8e-05,-26.65,,,,,,,
5999.85,5e-05,-32.82,,,,,,,
5999.86,3e-05,-38.37,,,,,,,
5999.86,2e-05,-39.94,,,,,,,
5999.87,0.0,-42.73,,,,,,,
5999.88,-3e-05,-46.33,,,,,,,
5999.89,-5e-05,-49.43,,,,,,,
5999.9,-8e-05,-52.21,,,,,,,
5999.91,-0.0001,-54.58,,,,,,,
5999.93,-0.00013,-56.56,,,,,,,
5999.95,-0.00016,-58.08,,,,,,,
6000.03,-0.00018,-63.19,,,,,,,
6000.07,-0.00021,-68.13,,,,,,,
6000.09,-0.00023,-72.13,,,,,,,
6000.11,-0.00026,-75.74,,,,,,,
6000.13,-0.00028,-79.01,,,,,,,
6000.16,-0.00031,-82.24,,,,,,,
6000.19,-0.00034,-85.51,,,,,,,
6000.22,-0.00036,-88.78,,,,,,,
6000.25,-0.00039,-92.05,,,,,,,
6000.28,-0.00041,-95.65,,,,,,,
6000.31,-0.00044,-99.47,,,,,,,
6000.34,-0.00046,-103.1,,,,,,,
6000.36,-0.00049,-106.6,,,,,,,
6000.39,-0.00051,-109.9,,,,,,,
6000.42,-0.00054,-113.5,,,,,,,
6000.44,-0.00056,-117.0,,,,,,,
6000.47,-0.00059,-120.7,,,,,,,
6000.5,-0.00061,-124.5,,,,,,,
6000.53,-0.00064,-128.7,,,,,,,
6000.55,-0.00067,-132.9,,,,,,,
6000.57,-0.00069,-136.8,,,,,,,
6000.59,-0.00072,-140.7,,,,,,,
6000.61,-0.00074,-144.4,,,,,,,
6000.63,-0.00077,-148.2,,,,,,,
6000.65,-0.00079,-151.7,,,,,,,
6000.67,-0.00082,-155.2,,,,,,,
6000.69,-0.00085,-158.7,,,,,,,
6000.71,-0.00087,-162.2,,,,,,,
6000.74,-0.0009,-165.7,,,,,,,
6000.76,-0.00092,-169.2,,,,,,,
6000.78,-0.00095,-172.5,,,,,,,
6000.8,-0.00097,-175.6,,,,,,,
6000.83,-0.001,-178.8,,,,,,,
6000.85,-0.00102,-181.9,,,,,,,
6000.87,-0.00105,-183.1,,,,,,,
6000.88,-0.00108,-184.2,,,,,,,
6000.88,-0.0011,-185.0,,,,,,,
6000.89,-0.00113,-185.6,,,,,,,
6000.9,-0.00116,-186.2,,,,,,,
6000.92,-0.00119,-186.0,,,,,,,
6001.06,-0.00121,-189.7,,,,,,,
6001.08,-0.00124,-193.3,,,,,,,
6001.09,-0.00126,-196.4,,,,,,,
6001.11,-0.00129,-196.9,,,,,,,
6001.12,-0.00132,-197.8,,,,,,,
6001.12,-0.00135,-198.5,,,,,,,
6001.13,-0.00138,-198.9,,,,,,,
6001.13,-0.00141,-199.4,,,,,,,
6001.14,-0.00143,-199.7,,,,,,,
6001.14,-0.00146,-199.7,,,,,,,
6001.16,-0.00148,-198.6,,,,,,,
6001.21,-0.00146,-186.9,,,,,,,
6001.22,-0.00143,-183.8,,,,,,,
6001.25,-0.00141,-182.9,,,,,,,
6001.31,-0.00143,-185.8,,,,,,,
6001.39,-0.00141,-172.8,,,,,,,
6001.41,-0.00138,-167.9,,,,,,,
6001.42,-0.00136,-163.5,,,,,,,
6001.44,-0.00133,-159.7,,,,,,,
6001.46,-0.0013,-155.9,,,,,,,
6001.48,-0.00128,-152.2,,,,,,,
6001.5,-0.00125,-148.6,,,,,,,
6001.53,-0.00123,-144.2,,,,,,,
6001.57,-0.0012,-139.2,,,,,,,
6001.6,-0.00118,-134.5,,,,,,,
6001.62,-0.00115,-130.2,,,,,,,
6001.65,-0.00113,-126.0,,,,,,,
6001.67,-0.0011,-122.3,,,,,,,
6001.7,-0.00107,-118.3,,,,,,,
6001.72,-0.00105,-114.1,,,,,,,
6001.75,-0.00102,-110.3,,,,,,,
6001.78,-0.001,-106.4,,,,,,,
6001.8,-0.00097,-102.4,,,,,,,
6001.83,-0.00095,-98.59,,,,,,,
6001.86,-0.00092,-94.72,,,,,,,
6001.88,-0.0009,-91.0,,,,,,,
6001.91,-0.00087,-87.21,,,,,,,
6001.93,-0.00085,-83.46,,,,,,,
6001.96,-0.00082,-79.51,,,,,,,
6001.99,-0.00079,-75.79,,,,,,,
6002.01,-0.00077,-72.01,,,,,,,
6002.04,-0.00074,-68.43,,,,,,,
6002.07,-0.00072,-64.83,,,,,,,
6002.09,-0.00069,-61.38,,,,,,,
6002.12,-0.00067,-57.8,,,,,,,
6002.14,-0.00064,-54.33,,,,,,,
6002.17,-0.00062,-50.72,,,,,,,
6002.2,-0.00059,-46.96,,,,,,,
6002.23,-0.00057,-43.15,,,,,,,
6002.25,-0.00054,-39.5,,,,,,,
6002.28,-0.00051,-35.74,,,,,,,
6002.31,-0.00049,-31.81,,,,,,,
6002.33,-0.00046,-28.15,,,,,,,
6002.36,-0.00044,-24.28,,,,,,,
6002.39,-0.00041,-20.48,,,,,,,
6002.42,-0.00039,-16.78,,,,,,,
6002.44,-0.00036,-12.9,,,,,,,
6002.47,-0.00034,-9.14,,,,,,,
6002.49,-0.00031,-5.6,,,,,,,
6002.52,-0.00029,-1.95,,,,,,,
6002.55,-0.00026,1.58,,,,,,,
6002.57,-0.00023,5.05,,,,,,,
6002.6,-0.00021,8.92,,,,,,,
6002.63,-0.00018,12.49,,,,,,,
6002.65,-0.00016,16.07,,,,,,,
6002.68,-0.00013,19.89,,,,,,,
6002.71,-0.00011,23.55,,,,,,,
6002.74,-8e-05,27.13,,,,,,,
12005.54,-7e-05,23.63,,,,,,,
12005.57,-5e-05,27.1,,,,,,,
12005.6,-2e-05,30.59,,,,,,,
12005.63,1e-05,33.28,,,,,,,
12005.74,3e-05,40.78,,,,,,,
12005.76,6e-05,47.61,,,,,,,
12005.77,8e-05,52.54,,,,,,,
12005.78,0.00011,56.32,,,,,,,
12005.79,0.00014,59.87,,,,,,,
12005.8,0.00016,63.02,,,,,,,
12005.81,0.00019,65.84,,,,,,,
12005.82,0.00022,68.21,,,,,,,
12005.83,0.00024,70.06,,,,,,,
12005.86,0.00027,71.52,,,,,,,
12005.94,0.00029,75.1,,,,,,,
12005.98,0.00032,80.26,,,,,,,
12006.0,0.00034,84.53,,,,,,,
12006.02,0.00037,88.4,,,,,,,
12006.05,0.00039,91.89,,,,,,,
12006.07,0.00042,95.31,,,,,,,
12006.1,0.00045,98.77,,,,,,,
12006.13,0.00047,102.22,,,,,,,
12006.16,0.0005,105.79,,,,,,,
12006.19,0.00052,109.34,,,,,,,
12006.21,0.00055,112.96,,,,,,,
12006.24,0.00057,116.34,,,,,,,
12006.27,0.0006,119.84,,,,,,,
12006.3,0.00062,123.26,,,,,,,
12006.32,0.00065,126.37,,,,,,,
12006.35,0.00067,129.95,,,,,,,
12006.38,0.0007,133.46,,,,,,,
12006.41,0.00073,136.68,,,,,,,
12006.43,0.00075,140.14,,,,,,,
12006.46,0.00078,143.45,,,,,,,
12006.49,0.0008,146.69,,,,,,,
12006.51,0.00083,149.82,,,,,,,
12006.54,0.00085,153.04,,,,,,,
12006.56,0.00088,156.55,,,,,,,
12006.59,0.0009,160.06,,,,,,,
12006.61,0.00093,163.41,,,,,,,
12006.63,0.00095,166.62,,,,,,,
12006.65,0.00098,169.78,,,,,,,
12006.67,0.00101,172.81,,,,,,,
12006.69,0.00103,175.81,,,,,,,
12006.71,0.00106,178.91,,,,,,,
12006.73,0.00108,181.89,,,,,,,
12006.75,0.00111,184.67,,,,,,,
12006.78,0.00113,187.25,,,,,,,
12006.79,0.00116,188.41,,,,,,,
12006.8,0.00119,189.53,,,,,,,
12006.81,0.00121,190.28,,,,,,,
12006.82,0.00124,190.95,,,,,,,
12006.83,0.00126,191.37,,,,,,,
12006.94,0.00129,191.43,,,,,,,
12006.97,0.00131,196.2,,,,,,,
12006.99,0.00134,199.69,,,,,,,
12007.01,0.00137,199.98,,,,,,,
12007.01,0.00139,200.89,,,,,,,
12007.02,0.00142,201.53,,,,,,,
12007.02,0.00145,202.14,,,,,,,
12007.03,0.00148,202.65,,,,,,,
12007.03,0.00151,202.73,,,,,,,
12007.04,0.00154,202.25,,,,,,,
12007.04,0.00157,202.04,,,,,,,
12007.05,0.0016,201.67,,,,,,,
12007.05,0.00162,201.08,,,,,,,
12007.06,0.00165,199.95,,,,,,,
12007.07,0.00168,197.46,,,,,,,
12007.1,0.00165,178.6,,,,,,,
12007.1,0.00162,173.43,,,,,,,
12007.11,0.0016,168.27,,,,,,,
12007.12,0.00157,163.82,,,,,,,
12007.12,0.00154,159.66,,,,,,,
12007.13,0.00151,155.72,,,,,,,
12007.13,0.00148,152.04,,,,,,,
12007.14,0.00145,148.81,,,,,,,
12007.15,0.00143,145.86,,,,,,,
12007.15,0.0014,143.28,,,,,,,
12007.16,0.00137,140.8,,,,,,,
12007.17,0.00134,138.66,,,,,,,
12007.17,0.00132,136.99,,,,,,,
12007.19,0.00129,135.89,,,,,,,
12007.34,0.00127,129.66,,,,,,,
12007.35,0.00124,125.31,,,,,,,
12007.37,0.00122,121.27,,,,,,,
12007.39,0.00119,117.64,,,,,,,
12007.41,0.00117,114.08,,,,,,,
12007.43,0.00114,110.19,,,,,,,
12007.46,0.00111,106.28,,,,,,,
12007.49,0.00109,102.62,,,,,,,
12007.51,0.00106,98.74,,,,,,,
12007.54,0.00104,94.79,,,,,,,
12007.57,0.00101,90.36,,,,,,,
12007.6,0.00099,86.38,,,,,,,
12007.62,0.00096,82.85,,,,,,,
12007.64,0.00094,79.5,,,,,,,
12007.67,0.00091,76.39,,,,,,,
12007.69,0.00089,73.32,,,,,,,
12007.72,0.00086,70.06,,,,,,,
12007.75,0.00084,66.68,,,,,,,
12007.78,0.00081,63.02,,,,,,,
12007.81,0.00079,59.02,,,,,,,
12007.84,0.00076,55.16,,,,,,,
12007.86,0.00073,51.39,,,,,,,
12007.89,0.00071,47.32,,,,,,,
12007.92,0.00068,43.53,,,,,,,
12007.94,0.00066,39.81,,,,,,,
12007.97,0.00063,36.08,,,,,,,
12007.99,0.00061,32.42,,,,,,,
12008.02,0.00058,28.45,,,,,,,
12008.05,0.00055,24.63,,,,,,,
12008.08,0.00053,20.75,,,,,,,
12008.11,0.0005,16.66,,,,,,,
12008.13,0.00048,12.69,,,,,,,
12008.16,0.00045,9.1,,,,,,,
12008.18,0.00043,5.38,,,,,,,
12008.21,0.0004,1.73,,,,,,,
12008.24,0.00038,-1.72,,,,,,,
12008.27,0.00035,-5.75,,,,,,,
12008.29,0.00033,-9.49,,,,,,,
12008.32,0.0003,-12.94,,,,,,,
12008.35,0.00027,-15.59,,,,,,,
12008.46,0.00025,-23.56,,,,,,,
12008.48,0.00022,-29.48,,,,,,,
12008.49,0.0002,-34.56,,,,,,,
12008.5,0.00017,-38.62,,,,,,,
12008.51,0.00015,-41.91,,,,,,,
12008.52,0.00012,-44.97,,,,,,,
12008.53,9e-05,-47.57,,,,,,,
12008.54,7e-05,-49.71,,,,,,,
12008.56,4e-05,-51.55,,,,,,,
12008.59,2e-05,-53.15,,,,,,,
12008.66,-1e-05,-57.15,,,,,,,
12008.69,-3e-05,-61.79,,,,,,,
12008.72,-6e-05,-66.05,,,,,,,
12008.75,-8e-05,-69.79,,,,,,,
12008.77,-0.00011,-73.11,,,,,,,
12008.79,-0.00013,-76.42,,,,,,,
12008.82,-0.00016,-79.78,,,,,,,
12008.85,-0.00019,-83.2,,,,,,,
12008.88,-0.00021,-86.94,,,,,,,
12008.91,-0.00024,-90.82,,,,,,,
12008.94,-0.00026,-94.3,,,,,,,
12008.97,-0.00029,-98.16,,,,,,,
12009.0,-0.00031,-101.9,,,,,,,
12009.02,-0.00034,-105.4,,,,,,,
12009.05,-0.00036,-109.1,,,,,,,
12009.08,-0.00039,-112.4,,,,,,,
12009.1,-0.00041,-115.6,,,,,,,
12009.13,-0.00044,-118.9,,,,,,,
12009.15,-0.00046,-122.0,,,,,,,
12009.18,-0.00049,-125.4,,,,,,,
12009.2,-0.00052,-129.2,,,,,,,
12009.23,-0.00054,-133.3,,,,,,,
12009.25,-0.00057,-137.0,,,,,,,
12009.27,-0.00059,-140.5,,,,,,,
12009.29,-0.00062,-143.8,,,,,,,
12009.3,-0.00064,-147.0,,,,,,,
12009.32,-0.00067,-150.2,,,,,,,
12009.34,-0.0007,-153.2,,,,,,,
12009.37,-0.00072,-156.2,,,,,,,
12009.39,-0.00075,-159.4,,,,,,,
12009.41,-0.00077,-162.6,,,,,,,
12009.44,-0.0008,-166.0,,,,,,,
12009.46,-0.00082,-169.3,,,,,,,
12009.49,-0.00085,-172.9,,,,,,,
12009.51,-0.00087,-176.1,,,,,,,
12009.53,-0.0009,-179.0,,,,,,,
12009.55,-0.00092,-181.8,,,,,,,
12009.57,-0.00095,-183.8,,,,,,,
12009.59,-0.00097,-183.3,,,,,,,
12009.59,-0.001,-183.1,,,,,,,
12009.6,-0.00103,-183.6,,,,,,,
12009.6,-0.00106,-183.9,,,,,,,
12009.61,-0.00109,-184.1,,,,,,,
12009.61,-0.00113,-184.2,,,,,,,
12009.61,-0.00115,-184.1,,,,,,,
12009.62,-0.00118,-183.9,,,,,,,
12009.63,-0.00121,-183.2,,,,,,,
12009.64,-0.00124,-180.3,,,,,,,
12009.66,-0.00121,-167.4,,,,,,,
12009.67,-0.00118,-162.5,,,,,,,
12009.68,-0.00116,-158.4,,,,,,,
12009.69,-0.00113,-155.5,,,,,,,
12009.7,-0.00111,-153.0,,,,,,,
12009.71,-0.00108,-151.1,,,,,,,
12009.72,-0.00105,-150.0,,,,,,,
12009.78,-0.00108,-166.1,,,,,,,
12009.79,-0.00111,-170.5,,,,,,,
12009.8,-0.00114,-174.2,,,,,,,
12009.81,-0.00116,-177.5,,,,,,,
12009.82,-0.00119,-180.5,,,,,,,
12009.83,-0.00121,-182.9,,,,,,,
12009.84,-0.00124,-185.1,,,,,,,
12009.86,-0.00127,-187.0,,,,,,,
12009.86,-0.00127,-187.5,,,,,,,
12009.88,-0.00129,-188.3,,,,,,,
12009.93,-0.00132,-189.7,,,,,,,
12009.98,-0.00134,-193.9,,,,,,,
12010.01,-0.00137,-197.7,,,,,,,
12010.03,-0.00139,-200.0,,,,,,,
12010.04,-0.00142,-201.9,,,,,,,
12010.05,-0.00145,-203.0,,,,,,,
12010.06,-0.00147,-202.3,,,,,,,
12010.07,-0.0015,-202.4,,,,,,,
12010.08,-0.00153,-202.5,,,,,,,
12010.08,-0.00155,-202.4,,,,,,,
12010.08,-0.00158,-202.2,,,,,,,
12010.09,-0.00161,-201.9,,,,,,,
12010.09,-0.00164,-201.1,,,,,,,
12010.1,-0.00167,-199.1,,,,,,,
12010.13,-0.00164,-177.0,,,,,,,
12010.14,-0.00161,-171.1,,,,,,,
12010.15,-0.00158,-165.9,,,,,,,
12010.15,-0.00155,-160.9,,,,,,,
12010.16,-0.00153,-156.9,,,,,,,
12010.16,-0.0015,-153.1,,,,,,,
12010.17,-0.00147,-149.5,,,,,,,
12010.17,-0.00145,-146.1,,,,,,,
12010.18,-0.00142,-143.1,,,,,,,
12010.18,-0.0014,-140.4,,,,,,,
12010.19,-0.00137,-137.5,,,,,,,
12010.19,-0.00134,-135.1,,,,,,,
12010.2,-0.00131,-133.0,,,,,,,
12010.21,-0.00128,-131.2,,,,,,,
12010.22,-0.00126,-130.2,,,,,,,
12010.23,-0.00123,-130.2,,,,,,,
12010.29,-0.00126,-137.1,,,,,,,
12010.38,-0.00123,-124.2,,,,,,,
12010.4,-0.00121,-119.9,,,,,,,
12010.41,-0.00118,-116.1,,,,,,,
12010.43,-0.00115,-112.6,,,,,,,
12010.45,-0.00113,-109.3,,,,,,,
12010.47,-0.0011,-106.1,,,,,,,
12010.5,-0.00108,-102.6,,,,,,,
12010.53,-0.00105,-98.44,,,,,,,
12010.56,-0.00103,-94.04,,,,,,,
12010.59,-0.001,-89.6,,,,,,,
12010.62,-0.00098,-85.3,,,,,,,
12010.64,-0.00095,-81.35,,,,,,,
12010.67,-0.00092,-77.41,,,,,,,
12010.69,-0.0009,-73.57,,,,,,,
12010.72,-0.00087,-69.77,,,,,,,
12010.74,-0.00085,-65.96,,,,,,,
12010.77,-0.00082,-61.94,,,,,,,
12010.8,-0.0008,-58.14,,,,,,,
12010.82,-0.00077,-54.39,,,,,,,
12010.85,-0.00075,-50.44,,,,,,,
12010.88,-0.00072,-46.64,,,,,,,
12010.9,-0.0007,-42.85,,,,,,,
12010.93,-0.00067,-39.05,,,,,,,
12010.96,-0.00064,-35.19,,,,,,,
12010.98,-0.00062,-31.28,,,,,,,
12011.01,-0.00059,-27.56,,,,,,,
12011.04,-0.00057,-23.67,,,,,,,
12011.06,-0.00054,-19.91,,,,,,,
12011.09,-0.00052,-15.88,,,,,,,
12011.12,-0.00049,-11.75,,,,,,,
12011.15,-0.00047,-7.57,,,,,,,
12011.18,-0.00044,-3.45,,,,,,,
12011.2,-0.00042,0.62,,,,,,,
12011.23,-0.00039,4.34,,,,,,,
12011.25,-0.00036,8.38,,,,,,,
12011.28,-0.00034,12.11,,,,,,,
12011.31,-0.00031,15.73,,,,,,,
12011.33,-0.00029,19.75,,,,,,,
12011.36,-0.00026,23.6,,,,,,,
12011.39,-0.00024,27.63,,,,,,,
12011.42,-0.00021,31.34,,,,,,,
12011.45,-0.00019,34.26,,,,,,,
30031.99,-7e-05,32.85,,,,,,,
30032.09,-5e-05,40.14,,,,,,,
30032.11,-2e-05,46.59,,,,,,,
30032.12,1e-05,51.24,,,,,,,
30032.13,3e-05,55.18,,,,,,,
30032.14,6e-05,58.5,,,,,,,
30032.15,8e-05,61.45,,,,,,,
30032.16,0.00011,64.12,,,,,,,
30032.18,0.00014,66.46,,,,,,,
30032.19,0.00016,68.29,,,,,,,
30032.22,0.00019,69.68,,,,,,,
30032.29,0.00021,73.74,,,,,,,
30032.33,0.00024,78.13,,,,,,,
30032.35,0.00026,81.95,,,,,,,
30032.37,0.00029,85.12,,,,,,,
30032.4,0.00031,88.11,,,,,,,
30032.42,0.00034,91.02,,,,,,,
30032.44,0.00036,93.78,,,,,,,
30032.47,0.00039,96.58,,,,,,,
30032.5,0.00041,99.54,,,,,,,
30032.53,0.00044,102.89,,,,,,,
30032.56,0.00047,106.08,,,,,,,
30032.59,0.00049,109.33,,,,,,,
30032.62,0.00052,112.76,,,,,,,
30032.65,0.00054,115.85,,,,,,,
30032.67,0.00057,118.9,,,,,,,
30032.7,0.00059,122.15,,,,,,,
30032.73,0.00062,125.43,,,,,,,
30032.75,0.00064,128.64,,,,,,,
30032.78,0.00067,131.91,,,,,,,
30032.81,0.00069,135.19,,,,,,,
30032.84,0.00072,138.18,,,,,,,
30032.86,0.00074,141.25,,,,,,,
30032.89,0.00077,144.43,,,,,,,
30032.92,0.0008,147.45,,,,,,,
30032.94,0.00082,150.87,,,,,,,
30032.97,0.00085,154.54,,,,,,,
30032.99,0.00087,157.9,,,,,,,
30033.01,0.0009,161.28,,,,,,,
30033.03,0.00092,164.62,,,,,,,
30033.05,0.00095,167.83,,,,,,,
30033.07,0.00098,170.98,,,,,,,
30033.09,0.001,173.98,,,,,,,
30033.11,0.00103,176.93,,,,,,,
30033.14,0.00105,179.85,,,,,,,
30033.16,0.00108,182.75,,,,,,,
30033.18,0.0011,185.64,,,,,,,
30033.21,0.00113,188.48,,,,,,,
30033.23,0.00115,190.75,,,,,,,
30033.25,0.00118,190.14,,,,,,,
30033.25,0.00121,190.76,,,,,,,
30033.26,0.00124,191.13,,,,,,,
30033.26,0.00127,191.56,,,,,,,
30033.27,0.0013,191.88,,,,,,,
30033.27,0.00133,192.11,,,,,,,
30033.27,0.00135,192.11,,,,,,,
30033.28,0.00138,191.79,,,,,,,
30033.29,0.00141,189.61,,,,,,,
30033.33,0.00138,178.78,,,,,,,
30033.34,0.00135,174.62,,,,,,,
30033.35,0.00133,171.65,,,,,,,
30033.36,0.0013,169.63,,,,,,,
30033.38,0.00128,169.18,,,,,,,
30033.43,0.0013,179.84,,,,,,,
30033.45,0.00133,184.11,,,,,,,
30033.46,0.00135,187.73,,,,,,,
30033.47,0.00138,190.95,,,,,,,
30033.48,0.00141,193.81,,,,,,,
30033.49,0.00143,196.41,,,,,,,
30033.51,0.00146,198.28,,,,,,,
30033.53,0.00149,198.42,,,,,,,
30033.59,0.00146,184.76,,,,,,,
30033.6,0.00143,180.11,,,,,,,
30033.62,0.00141,176.24,,,,,,,
30033.63,0.00138,172.6,,,,,,,
30033.64,0.00136,169.23,,,,,,,
30033.66,0.00133,166.01,,,,,,,
30033.68,0.00131,162.78,,,,,,,
30033.7,0.00128,159.46,,,,,,,
30033.74,0.00125,155.53,,,,,,,
30033.78,0.00123,150.77,,,,,,,
30033.81,0.0012,146.06,,,,,,,
30033.83,0.00118,141.72,,,,,,,
30033.86,0.00115,137.92,,,,,,,
30033.88,0.00113,134.07,,,,,,,
30033.91,0.0011,130.21,,,,,,,
30033.93,0.00108,126.43,,,,,,,
30033.96,0.00105,122.39,,,,,,,
30033.99,0.00103,118.3,,,,,,,
30034.02,0.001,114.27,,,,,,,
30034.04,0.00097,110.13,,,,,,,
30034.07,0.00095,106.13,,,,,,,
30034.1,0.00092,102.32,,,,,,,
30034.12,0.0009,98.46,,,,,,,
30034.15,0.00087,94.44,,,,,,,
30034.18,0.00085,90.51,,,,,,,
30034.2,0.00082,86.69,,,,,,,
30034.23,0.0008,82.67,,,,,,,
30034.26,0.00077,78.82,,,,,,,
30034.28,0.00075,74.9,,,,,,,
30034.31,0.00072,70.94,,,,,,,
30034.34,0.00069,67.04,,,,,,,
30034.37,0.00067,62.92,,,,,,,
30034.4,0.00064,58.73,,,,,,,
30034.42,0.00062,54.79,,,,,,,
30034.45,0.00059,50.93,,,,,,,
30034.47,0.00057,46.93,,,,,,,
30034.5,0.00054,43.16,,,,,,,
30034.52,0.00052,39.18,,,,,,,
30034.55,0.00049,35.45,,,,,,,
30034.58,0.00047,31.67,,,,,,,
30034.61,0.00044,27.73,,,,,,,
30034.63,0.00041,23.68,,,,,,,
30034.66,0.00039,19.6,,,,,,,
30034.69,0.00036,15.5,,,,,,,
30034.72,0.00034,11.79,,,,,,,
30034.74,0.00031,8.05,,,,,,,
30034.76,0.00029,4.57,,,,,,,
30034.79,0.00026,1.18,,,,,,,
30034.82,0.00024,-2.65,,,,,,,
30034.85,0.00021,-6.31,,,,,,,
30034.88,0.00018,-10.16,,,,,,,
30034.9,0.00016,-13.95,,,,,,,
30034.93,0.00013,-15.99,,,,,,,
30035.04,0.00011,-24.13,,,,,,,
30035.06,8e-05,-30.05,,,,,,,
30035.07,6e-05,-35.11,,,,,,,
30035.08,3e-05,-39.04,,,,,,,
30035.09,0.0,-42.62,,,,,,,
30035.1,-2e-05,-45.76,,,,,,,
30035.11,-5e-05,-48.43,,,,,,,
30035.13,-8e-05,-50.62,,,,,,,
30035.15,-0.0001,-52.47,,,,,,,
30035.19,-0.00013,-54.23,,,,,,,
30035.25,-0.00015,-60.3,,,,,,,
30035.28,-0.00018,-64.86,,,,,,,
30035.31,-0.0002,-68.91,,,,,,,
30035.33,-0.00023,-72.49,,,,,,,
30035.35,-0.00025,-75.95,,,,,,,
30035.38,-0.00028,-79.23,,,,,,,
30035.41,-0.0003,-82.79,,,,,,,
30035.44,-0.00033,-86.43,,,,,,,
30035.47,-0.00036,-90.27,,,,,,,
30035.5,-0.00038,-94.24,,,,,,,
30035.53,-0.00041,-98.05,,,,,,,
30035.56,-0.00043,-101.6,,,,,,,
30035.58,-0.00046,-105.2,,,,,,,
30035.61,-0.00048,-108.8,,,,,,,
30035.63,-0.00051,-112.2,,,,,,,
30035.66,-0.00053,-115.8,,,,,,,
30035.69,-0.00056,-119.4,,,,,,,
30035.72,-0.00058,-122.7,,,,,,,
30035.74,-0.00061,-126.3,,,,,,,
30035.77,-0.00064,-130.1,,,,,,,
30035.79,-0.00066,-133.9,,,,,,,
30035.81,-0.00069,-137.5,,,,,,,
30035.83,-0.00071,-140.9,,,,,,,
30035.84,-0.00074,-144.2,,,,,,,
30035.86,-0.00076,-147.3,,,,,,,
30035.88,-0.00079,-150.5,,,,,,,
30035.9,-0.00081,-153.4,,,,,,,
30035.92,-0.00084,-156.3,,,,,,,
30035.95,-0.00086,-159.3,,,,,,,
30035.97,-0.00089,-162.2,,,,,,,
30035.99,-0.00092,-165.3,,,,,,,
30036.02,-0.00094,-168.2,,,,,,,
30036.04,-0.00097,-171.1,,,,,,,
30036.06,-0.00099,-173.7,,,,,,,
30036.09,-0.00102,-176.6,,,,,,,
30036.11,-0.00104,-179.3,,,,,,,
30036.14,-0.00107,-182.3,,,,,,,
30036.16,-0.00109,-185.2,,,,,,,
30036.19,-0.00112,-188.2,,,,,,,
30036.22,-0.00114,-191.3,,,,,,,
30036.24,-0.00117,-193.7,,,,,,,
30036.26,-0.0012,-194.0,,,,,,,
30036.27,-0.00122,-194.8,,,,,,,
30036.27,-0.00125,-195.2,,,,,,,
30036.27,-0.00128,-195.7,,,,,,,
30036.28,-0.00131,-196.0,,,,,,,
30036.29,-0.00134,-196.2,,,,,,,
30036.29,-0.00136,-196.0,,,,,,,
30036.31,-0.00139,-194.7,,,,,,,
30036.35,-0.00136,-183.4,,,,,,,
30036.36,-0.00134,-180.4,,,,,,,
30036.38,-0.00131,-178.6,,,,,,,
30036.45,-0.00134,-189.7,,,,,,,
30036.47,-0.00136,-193.6,,,,,,,
30036.48,-0.00139,-196.8,,,,,,,
30036.49,-0.00141,-199.6,,,,,,,
30036.5,-0.00144,-202.2,,,,,,,
30036.52,-0.00147,-203.5,,,,,,,
30036.54,-0.00149,-203.1,,,,,,,
30036.6,-0.00147,-185.8,,,,,,,
30036.61,-0.00144,-181.3,,,,,,,
30036.62,-0.00141,-177.2,,,,,,,
30036.63,-0.00139,-173.6,,,,,,,
30036.64,-0.00136,-170.6,,,,,,,
30036.65,-0.00133,-167.5,,,,,,,
30036.67,-0.00131,-164.9,,,,,,,
30036.68,-0.00128,-162.4,,,,,,,
30036.72,-0.00126,-159.7,,,,,,,
30036.78,-0.00123,-153.6,,,,,,,
30036.81,-0.00121,-148.4,,,,,,,
30036.84,-0.00118,-144.1,,,,,,,
30036.86,-0.00116,-140.1,,,,,,,
30036.88,-0.00113,-136.1,,,,,,,
30036.9,-0.00111,-132.6,,,,,,,
30036.93,-0.00108,-128.9,,,,,,,
30036.96,-0.00105,-125.0,,,,,,,
30036.98,-0.00103,-121.1,,,,,,,
30037.01,-0.001,-117.0,,,,,,,
30037.04,-0.00098,-112.9,,,,,,,
30037.07,-0.00095,-108.9,,,,,,,
30037.09,-0.00093,-104.9,,,,,,,
30037.12,-0.0009,-100.6,,,,,,,
30037.15,-0.00088,-96.47,,,,,,,
30037.18,-0.00085,-92.33,,,,,,,
30037.2,-0.00082,-88.0,,,,,,,
30037.23,-0.0008,-83.67,,,,,,,
30037.26,-0.00077,-79.55,,,,,,,
30037.29,-0.00075,-75.27,,,,,,,
30037.31,-0.00072,-71.25,,,,,,,
30037.34,-0.0007,-67.5,,,,,,,
30037.36,-0.00067,-63.64,,,,,,,
30037.39,-0.00065,-59.75,,,,,,,
30037.41,-0.00062,-56.11,,,,,,,
30037.44,-0.0006,-52.28,,,,,,,
30037.47,-0.00057,-48.2,,,,,,,
30037.5,-0.00054,-43.99,,,,,,,
30037.52,-0.00052,-39.97,,,,,,,
30037.55,-0.00049,-36.25,,,,,,,
30037.57,-0.00047,-32.57,,,,,,,
30037.6,-0.00044,-28.83,,,,,,,
30037.63,-0.00042,-25.18,,,,,,,
30037.65,-0.00039,-21.16,,,,,,,
30037.68,-0.00037,-16.85,,,,,,,
30037.72,-0.00034,-12.47,,,,,,,
30037.74,-0.00032,-8.58,,,,,,,
30037.77,-0.00029,-4.43,,,,,,,
30037.79,-0.00026,-0.53,,,,,,,
30037.82,-0.00024,3.29,,,,,,,
30037.84,-0.00021,6.9,,,,,,,
30037.87,-0.00019,11.04,,,,,,,
30037.9,-0.00016,15.49,,,,,,,
30037.93,-0.00014,20.26,,,,,,,
30037.96,-0.00011,24.59,,,,,,,
30037.98,-9e-05,28.4,,,,,,,
60071.51,0.00142,199.14,,,,,,,
60071.53,0.00145,200.37,,,,,,,
60071.54,0.00147,200.66,,,,,,,
60071.55,0.0015,200.71,,,,,,,
60071.56,0.00153,200.37,,,,,,,
60071.57,0.00155,198.42,,,,,,,
60071.6,0.00153,185.06,,,,,,,
60071.61,0.0015,179.85,,,,,,,
60071.62,0.00147,175.25,,,,,,,
60071.63,0.00145,171.22,,,,,,,
60071.64,0.00142,167.58,,,,,,,
60071.65,0.00139,164.23,,,,,,,
60071.66,0.00136,161.07,,,,,,,
60071.67,0.00134,158.32,,,,,,,
60071.68,0.00131,155.98,,,,,,,
60071.7,0.00129,153.66,,,,,,,
60071.73,0.00126,151.58,,,,,,,
60071.81,0.00124,145.23,,,,,,,
60071.84,0.00121,139.81,,,,,,,
60071.86,0.00118,135.39,,,,,,,
60071.88,0.00116,131.38,,,,,,,
60071.91,0.00113,127.5,,,,,,,
60071.93,0.00111,123.73,,,,,,,
60071.95,0.00108,120.12,,,,,,,
60071.98,0.00106,116.24,,,,,,,
60072.01,0.00103,112.31,,,,,,,
60072.04,0.00101,108.41,,,,,,,
60072.06,0.00098,104.38,,,,,,,
60072.09,0.00096,100.36,,,,,,,
60072.12,0.00093,96.48,,,,,,,
60072.15,0.0009,92.58,,,,,,,
60072.17,0.00088,88.69,,,,,,,
60072.2,0.00085,84.83,,,,,,,
60072.22,0.00083,81.04,,,,,,,
60072.25,0.0008,77.1,,,,,,,
60072.28,0.00078,73.32,,,,,,,
60072.3,0.00075,69.55,,,,,,,
60072.33,0.00073,65.54,,,,,,,
60072.36,0.0007,61.84,,,,,,,
60072.38,0.00068,58.03,,,,,,,
60072.41,0.00065,54.23,,,,,,,
60072.43,0.00062,50.6,,,,,,,
60072.46,0.0006,46.83,,,,,,,
60072.49,0.00057,43.06,,,,,,,
60072.52,0.00055,39.29,,,,,,,
60072.54,0.00052,35.46,,,,,,,
60072.57,0.0005,31.77,,,,,,,
60072.6,0.00047,27.92,,,,,,,
60072.63,0.00045,24.18,,,,,,,
60072.65,0.00042,20.42,,,,,,,
60072.68,0.00039,16.54,,,,,,,
60072.71,0.00037,12.9,,,,,,,
60072.73,0.00034,9.07,,,,,,,
60072.76,0.00032,5.25,,,,,,,
60072.79,0.00029,1.57,,,,,,,
60072.81,0.00027,-2.08,,,,,,,
60072.84,0.00024,-5.84,,,,,,,
60072.87,0.00021,-9.3,,,,,,,
60072.9,0.00019,-13.01,,,,,,,
60072.93,0.00016,-15.4,,,,,,,
60073.04,0.00014,-22.63,,,,,,,
60073.05,0.00011,-28.69,,,,,,,
60073.06,9e-05,-33.59,,,,,,,
60073.08,6e-05,-37.52,,,,,,,
60073.09,3e-05,-40.99,,,,,,,
60073.1,1e-05,-44.12,,,,,,,
60073.11,-2e-05,-46.64,,,,,,,
60073.12,-5e-05,-48.86,,,,,,,
60073.14,-7e-05,-50.6,,,,,,,
60073.18,-0.0001,-52.01,,,,,,,
60073.25,-0.00012,-57.14,,,,,,,
60073.28,-0.00015,-61.33,,,,,,,
60073.3,-0.00017,-65.07,,,,,,,
60073.32,-0.0002,-68.36,,,,,,,
60073.35,-0.00022,-71.66,,,,,,,
60073.37,-0.00025,-74.66,,,,,,,
60073.4,-0.00027,-77.84,,,,,,,
60073.43,-0.0003,-81.18,,,,,,,
60073.46,-0.00033,-84.41,,,,,,,
60073.49,-0.00035,-88.13,,,,,,,
60073.52,-0.00038,-91.59,,,,,,,
60073.55,-0.0004,-95.14,,,,,,,
60073.58,-0.00043,-98.47,,,,,,,
60073.6,-0.00045,-101.5,,,,,,,
60073.63,-0.00048,-104.7,,,,,,,
60073.65,-0.0005,-107.7,,,,,,,
60073.68,-0.00053,-111.0,,,,,,,
60073.71,-0.00055,-114.5,,,,,,,
60073.74,-0.00058,-118.0,,,,,,,
60073.77,-0.00061,-122.0,,,,,,,
60073.79,-0.00063,-126.1,,,,,,,
60073.81,-0.00066,-130.0,,,,,,,
60073.83,-0.00068,-133.6,,,,,,,
60073.85,-0.00071,-137.3,,,,,,,
60073.87,-0.00073,-140.7,,,,,,,
60073.89,-0.00076,-144.0,,,,,,,
60073.91,-0.00079,-147.2,,,,,,,
60073.93,-0.00081,-150.4,,,,,,,
60073.95,-0.00084,-153.6,,,,,,,
60073.97,-0.00086,-156.8,,,,,,,
60074.0,-0.00089,-160.0,,,,,,,
60074.02,-0.00091,-163.4,,,,,,,
60074.04,-0.00094,-166.6,,,,,,,
60074.07,-0.00096,-169.7,,,,,,,
60074.09,-0.00099,-172.9,,,,,,,
60074.11,-0.00102,-175.8,,,,,,,
60074.14,-0.00104,-178.5,,,,,,,
60074.16,-0.00107,-181.2,,,,,,,
60074.19,-0.00109,-184.0,,,,,,,
60074.21,-0.00112,-186.6,,,,,,,
60074.24,-0.00114,-188.0,,,,,,,
60074.25,-0.00117,-189.3,,,,,,,
60074.25,-0.0012,-190.2,,,,,,,
60074.27,-0.00122,-191.0,,,,,,,
60074.29,-0.00125,-191.3,,,,,,,
60074.36,-0.00127,-189.8,,,,,,,
60074.41,-0.0013,-193.7,,,,,,,
60074.43,-0.00132,-197.2,,,,,,,
60074.45,-0.00135,-199.9,,,,,,,
60074.47,-0.00137,-198.5,,,,,,,
60074.47,-0.0014,-199.4,,,,,,,
60074.48,-0.00143,-200.0,,,,,,,
60074.48,-0.00146,-200.5,,,,,,,
60074.49,-0.00149,-200.9,,,,,,,
60074.49,-0.00151,-201.3,,,,,,,
60074.5,-0.00154,-201.2,,,,,,,
60074.51,-0.00157,-200.5,,,,,,,
60074.56,-0.00154,-185.4,,,,,,,
60074.57,-0.00151,-180.7,,,,,,,
60074.58,-0.00149,-176.6,,,,,,,
60074.59,-0.00146,-172.7,,,,,,,
60074.6,-0.00144,-169.4,,,,,,,
60074.61,-0.00141,-166.1,,,,,,,
60074.63,-0.00138,-163.2,,,,,,,
60074.65,-0.00136,-160.5,,,,,,,
60074.67,-0.00133,-157.9,,,,,,,
60074.73,-0.00131,-152.9,,,,,,,
60074.77,-0.00128,-146.7,,,,,,,
60074.79,-0.00125,-142.3,,,,,,,
60074.82,-0.00123,-138.1,,,,,,,
60074.84,-0.0012,-134.1,,,,,,,
60074.86,-0.00118,-130.5,,,,,,,
60074.88,-0.00115,-126.9,,,,,,,
60074.91,-0.00113,-123.1,,,,,,,
60074.94,-0.0011,-119.4,,,,,,,
60074.97,-0.00108,-115.5,,,,,,,
60075.0,-0.00105,-111.5,,,,,,,
60075.02,-0.00102,-107.4,,,,,,,
60075.05,-0.001,-103.2,,,,,,,
60075.08,-0.00097,-99.41,,,,,,,
60075.1,-0.00095,-95.86,,,,,,,
60075.13,-0.00092,-92.18,,,,,,,
60075.15,-0.0009,-88.2,,,,,,,
60075.18,-0.00087,-84.2,,,,,,,
60075.21,-0.00085,-80.21,,,,,,,
60075.24,-0.00082,-76.18,,,,,,,
60075.26,-0.0008,-72.5,,,,,,,
60075.29,-0.00077,-68.89,,,,,,,
60075.31,-0.00075,-65.5,,,,,,,
60075.34,-0.00072,-61.91,,,,,,,
60075.36,-0.00069,-58.48,,,,,,,
60075.39,-0.00067,-54.97,,,,,,,
60075.42,-0.00064,-51.06,,,,,,,
60075.45,-0.00062,-47.21,,,,,,,
60075.48,-0.00059,-43.06,,,,,,,
60075.5,-0.00057,-39.0,,,,,,,
60075.53,-0.00054,-35.08,,,,,,,
60075.56,-0.00052,-31.03,,,,,,,
60075.58,-0.00049,-27.18,,,,,,,
60075.61,-0.00047,-23.33,,,,,,,
60075.64,-0.00044,-19.28,,,,,,,
60075.67,-0.00042,-15.44,,,,,,,
60075.69,-0.00039,-11.55,,,,,,,
60075.72,-0.00036,-7.7,,,,,,,
60075.74,-0.00034,-3.8,,,,,,,
60075.77,-0.00031,0.24,,,,,,,
60075.8,-0.00029,4.16,,,,,,,
60075.83,-0.00026,8.28,,,,,,,
60075.85,-0.00024,12.21,,,,,,,
60075.88,-0.00021,16.12,,,,,,,
60075.9,-0.00019,20.09,,,,,,,
60075.93,-0.00016,23.77,,,,,,,
60075.96,-0.00014,27.6,,,,,,,
60075.99,-0.00011,31.65,,,,,,,
60076.02,-8e-05,34.55,,,,,,,
60076.13,-6e-05,44.84,,,,,,,
60076.15,-3e-05,50.75,,,,,,,
60076.15,-0.0,55.19,,,,,,,
60076.17,2e-05,58.98,,,,,,,
60076.18,5e-05,62.44,,,,,,,
60076.18,8e-05,65.38,,,,,,,
60076.2,0.0001,68.0,,,,,,,
60076.21,0.00013,70.08,,,,,,,
60076.22,0.00015,71.84,,,,,,,
60076.25,0.00018,72.93,,,,,,,
60076.33,0.0002,76.95,,,,,,,
60076.36,0.00023,81.62,,,,,,,
60076.39,0.00026,85.52,,,,,,,
60076.42,0.00028,89.33,,,,,,,
60076.44,0.00031,93.06,,,,,,,
60076.47,0.00033,96.58,,,,,,,
60076.49,0.00036,100.16,,,,,,,
60076.52,0.00038,103.89,,,,,,,
60076.55,0.00041,107.39,,,,,,,
60076.58,0.00043,111.12,,,,,,,
60076.61,0.00046,115.3,,,,,,,
60076.64,0.00049,119.33,,,,,,,
60076.67,0.00051,122.95,,,,,,,
60076.69,0.00054,126.38,,,,,,,
60076.72,0.00056,129.74,,,,,,,
60076.74,0.00059,133.26,,,,,,,
60076.77,0.00061,136.37,,,,,,,
60076.79,0.00064,139.31,,,,,,,
60076.82,0.00066,142.3,,,,,,,
60076.85,0.00069,145.41,,,,,,,
60076.88,0.00071,148.72,,,,,,,
60076.91,0.00074,152.45,,,,,,,
60076.93,0.00076,156.53,,,,,,,
60076.96,0.00079,159.99,,,,,,,
60076.97,0.00082,163.41,,,,,,,
60076.99,0.00084,166.66,,,,,,,
60077.01,0.00087,169.7,,,,,,,
60077.03,0.00089,172.83,,,,,,,
60077.06,0.00092,176.0,,,,,,,
60077.08,0.00094,179.07,,,,,,,
60077.1,0.00097,182.07,,,,,,,
60077.12,0.001,184.88,,,,,,,
60077.15,0.00102,188.04,,,,,,,
60077.17,0.00105,188.36,,,,,,,
60077.18,0.00108,189.3,,,,,,,
60077.18,0.0011,189.97,,,,,,,
60077.19,0.00113,190.58,,,,,,,
60077.19,0.00116,191.09,,,,,,,
60077.2,0.00119,191.56,,,,,,,
60077.21,0.00121,191.61,,,,,,,
60077.22,0.00124,190.34,,,,,,,
60077.28,0.00121,180.69,,,,,,,
60077.31,0.00119,179.26,,,,,,,
60077.36,0.00121,186.68,,,,,,,
60077.38,0.00124,190.56,,,,,,,
60077.4,0.00127,193.68,,,,,,,
60077.41,0.00129,196.65,,,,,,,
60077.42,0.00132,199.27,,,,,,,
60077.44,0.00134,201.23,,,,,,,
60077.45,0.00137,201.38,,,,,,,
60077.46,0.0014,202.08,,,,,,,
60077.47,0.00143,202.6,,,,,,,
60077.48,0.00145,202.87,,,,,,,
