time,strain,stress,temperature,type,strain_rate,max_strain,title,youngs,poissons
0.0,3e-05,2.2,850,fatigue,0.001,0.00361,416-5,153000,0.3
0.05,6e-05,6.69,,,,,,,
0.08,8e-05,10.97,,,,,,,
0.11,0.00011,14.88,,,,,,,
0.14,0.00013,18.42,,,,,,,
0.19,0.00016,22.22,,,,,,,
0.25,0.00018,25.07,,,,,,,
0.31,0.00021,29.23,,,,,,,
0.36,0.00024,33.25,,,,,,,
0.38,0.00026,37.88,,,,,,,
0.4,0.00029,41.74,,,,,,,
0.41,0.00031,45.26,,,,,,,
0.43,0.00034,48.82,,,,,,,
0.45,0.00036,52.32,,,,,,,
0.47,0.00039,55.8,,,,,,,
0.49,0.00041,59.17,,,,,,,
0.52,0.00044,62.78,,,,,,,
0.55,0.00046,66.49,,,,,,,
0.58,0.00049,69.8,,,,,,,
0.62,0.00052,73.1,,,,,,,
0.65,0.00054,76.51,,,,,,,
0.69,0.00057,80.03,,,,,,,
0.73,0.00059,84.04,,,,,,,
0.76,0.00062,88.1,,,,,,,
0.79,0.00064,92.12,,,,,,,
0.82,0.00067,96.41,,,,,,,
0.82,0.00067,96.58,,,,,,,
0.84,0.00069,100.36,,,,,,,
0.86,0.00072,104.17,,,,,,,
0.88,0.00074,107.92,,,,,,,
0.89,0.00077,111.84,,,,,,,
0.91,0.0008,115.61,,,,,,,
0.93,0.00082,119.41,,,,,,,
0.95,0.00085,124.16,,,,,,,
0.97,0.00087,127.83,,,,,,,
0.99,0.0009,131.85,,,,,,,
1.01,0.00093,135.63,,,,,,,
1.03,0.00095,139.19,,,,,,,
1.05,0.00098,143.01,,,,,,,
1.07,0.001,146.61,,,,,,,
1.09,0.00103,150.27,,,,,,,
1.11,0.00105,154.09,,,,,,,
1.14,0.00108,157.39,,,,,,,
1.16,0.0011,160.42,,,,,,,
1.18,0.00113,163.3,,,,,,,
1.2,0.00116,165.81,,,,,,,
1.21,0.00118,167.28,,,,,,,
1.22,0.00121,167.75,,,,,,,
1.23,0.00124,167.92,,,,,,,
1.23,0.00127,168.05,,,,,,,
1.24,0.0013,168.16,,,,,,,
1.24,0.00132,168.3,,,,,,,
1.25,0.00135,168.4,,,,,,,
1.25,0.00138,168.57,,,,,,,
1.26,0.0014,168.7,,,,,,,
1.26,0.00143,168.75,,,,,,,
1.27,0.00146,168.78,,,,,,,
1.27,0.00148,168.79,,,,,,,
1.28,0.00151,168.64,,,,,,,
1.3,0.00154,167.97,,,,,,,
1.37,0.00151,159.76,,,,,,,
1.41,0.00149,156.06,,,,,,,
1.58,0.00151,162.0,,,,,,,
1.6,0.00154,165.7,,,,,,,
1.63,0.00156,169.31,,,,,,,
1.65,0.00159,172.72,,,,,,,
1.67,0.00161,175.74,,,,,,,
1.68,0.00164,167.48,,,,,,,
1.68,0.00167,167.92,,,,,,,
1.68,0.00171,167.99,,,,,,,
1.68,0.00175,168.22,,,,,,,
1.69,0.0018,168.47,,,,,,,
1.69,0.00186,168.56,,,,,,,
1.69,0.00194,168.71,,,,,,,
1.69,0.00201,168.86,,,,,,,
1.69,0.00209,168.94,,,,,,,
1.69,0.00216,169.07,,,,,,,
1.69,0.00223,169.23,,,,,,,
1.69,0.00229,169.39,,,,,,,
1.69,0.00234,169.59,,,,,,,
1.69,0.00238,169.69,,,,,,,
1.7,0.00241,169.9,,,,,,,
1.7,0.00239,170.27,,,,,,,
1.7,0.00236,170.41,,,,,,,
1.71,0.00233,170.43,,,,,,,
1.71,0.00235,170.04,,,,,,,
1.72,0.00238,169.61,,,,,,,
1.74,0.00235,162.97,,,,,,,
1.75,0.00233,158.45,,,,,,,
1.76,0.0023,154.4,,,,,,,
1.77,0.00227,150.37,,,,,,,
1.78,0.00225,146.41,,,,,,,
1.78,0.00222,142.32,,,,,,,
1.79,0.00219,138.78,,,,,,,
1.8,0.00217,135.3,,,,,,,
1.81,0.00214,131.5,,,,,,,
1.81,0.00212,127.77,,,,,,,
1.82,0.0021,125.14,,,,,,,
1.82,0.00209,124.24,,,,,,,
1.83,0.00206,120.62,,,,,,,
1.84,0.00204,117.09,,,,,,,
1.85,0.00201,113.66,,,,,,,
1.86,0.00199,110.42,,,,,,,
1.87,0.00196,107.03,,,,,,,
1.89,0.00193,104.03,,,,,,,
1.91,0.00191,101.35,,,,,,,
2.0,0.00193,106.38,,,,,,,
2.02,0.00196,110.17,,,,,,,
2.04,0.00199,113.96,,,,,,,
2.06,0.00201,117.51,,,,,,,
2.08,0.00204,121.46,,,,,,,
2.1,0.00206,125.49,,,,,,,
2.12,0.00209,129.24,,,,,,,
2.15,0.00212,132.9,,,,,,,
2.17,0.00214,136.84,,,,,,,
2.19,0.00217,140.06,,,,,,,
2.21,0.00219,143.4,,,,,,,
2.24,0.00222,146.84,,,,,,,
2.26,0.00224,150.08,,,,,,,
2.29,0.00227,153.76,,,,,,,
2.32,0.00229,157.48,,,,,,,
2.35,0.00232,160.91,,,,,,,
2.38,0.00234,164.44,,,,,,,
2.41,0.00237,167.84,,,,,,,
2.43,0.00239,171.15,,,,,,,
2.46,0.00242,174.44,,,,,,,
2.48,0.00245,170.92,,,,,,,
2.49,0.00248,171.16,,,,,,,
2.49,0.00251,171.3,,,,,,,
2.49,0.00256,171.5,,,,,,,
2.49,0.00261,171.63,,,,,,,
2.49,0.00265,171.84,,,,,,,
2.5,0.00268,172.03,,,,,,,
2.5,0.00271,172.38,,,,,,,
2.51,0.00268,172.65,,,,,,,
2.52,0.00271,172.59,,,,,,,
2.57,0.00268,166.89,,,,,,,
2.59,0.00265,162.25,,,,,,,
2.6,0.00263,157.82,,,,,,,
2.61,0.0026,155.16,,,,,,,
2.63,0.00258,150.62,,,,,,,
2.65,0.00255,146.19,,,,,,,
2.66,0.00252,143.19,,,,,,,
2.67,0.0025,139.43,,,,,,,
2.69,0.00247,135.4,,,,,,,
2.7,0.00245,131.87,,,,,,,
2.71,0.00242,128.46,,,,,,,
2.73,0.00239,124.94,,,,,,,
2.75,0.00237,121.32,,,,,,,
2.77,0.00234,117.55,,,,,,,
2.79,0.00232,113.91,,,,,,,
2.82,0.00229,110.12,,,,,,,
2.82,0.00229,110.0,,,,,,,
2.84,0.00227,106.81,,,,,,,
2.87,0.00224,103.42,,,,,,,
2.9,0.00222,99.56,,,,,,,
2.93,0.00219,96.0,,,,,,,
2.96,0.00216,92.47,,,,,,,
2.99,0.00214,88.8,,,,,,,
3.02,0.00211,84.6,,,,,,,
3.05,0.00209,81.1,,,,,,,
3.08,0.00206,77.87,,,,,,,
3.11,0.00204,73.98,,,,,,,
3.14,0.00201,70.28,,,,,,,
3.17,0.00199,66.64,,,,,,,
3.19,0.00196,63.16,,,,,,,
3.22,0.00194,59.86,,,,,,,
3.25,0.00191,56.0,,,,,,,
3.28,0.00189,52.18,,,,,,,
3.3,0.00186,48.71,,,,,,,
3.33,0.00183,44.67,,,,,,,
3.36,0.00181,41.08,,,,,,,
3.39,0.00178,37.54,,,,,,,
3.42,0.00176,33.6,,,,,,,
3.45,0.00173,29.97,,,,,,,
3.47,0.00171,26.41,,,,,,,
3.5,0.00168,22.48,,,,,,,
3.53,0.00166,18.91,,,,,,,
3.56,0.00163,14.96,,,,,,,
3.59,0.0016,11.24,,,,,,,
3.62,0.00158,7.53,,,,,,,
3.65,0.00155,3.92,,,,,,,
3.67,0.00153,0.43,,,,,,,
3.7,0.0015,-3.06,,,,,,,
3.73,0.00148,-6.75,,,,,,,
3.76,0.00145,-10.3,,,,,,,
3.78,0.00143,-13.56,,,,,,,
3.81,0.0014,-17.02,,,,,,,
3.82,0.0014,-18.01,,,,,,,
3.84,0.00138,-20.36,,,,,,,
3.99,0.00135,-24.05,,,,,,,
4.03,0.00133,-27.66,,,,,,,
4.08,0.0013,-31.96,,,,,,,
4.12,0.00127,-35.86,,,,,,,
4.14,0.00125,-39.26,,,,,,,
4.17,0.00122,-43.03,,,,,,,
4.2,0.0012,-46.89,,,,,,,
4.22,0.00117,-50.97,,,,,,,
4.24,0.00115,-54.79,,,,,,,
4.26,0.00112,-59.09,,,,,,,
4.27,0.0011,-62.9,,,,,,,
4.29,0.00107,-66.55,,,,,,,
4.31,0.00104,-70.58,,,,,,,
4.32,0.00102,-74.65,,,,,,,
4.34,0.00099,-78.42,,,,,,,
4.35,0.00097,-82.46,,,,,,,
4.37,0.00094,-86.24,,,,,,,
4.38,0.00092,-89.94,,,,,,,
4.4,0.00089,-93.51,,,,,,,
4.41,0.00086,-97.1,,,,,,,
4.42,0.00084,-100.41,,,,,,,
4.44,0.00081,-103.58,,,,,,,
4.46,0.00079,-106.93,,,,,,,
4.47,0.00076,-109.98,,,,,,,
4.49,0.00074,-112.84,,,,,,,
4.5,0.00071,-115.54,,,,,,,
4.52,0.00069,-118.09,,,,,,,
4.53,0.00066,-120.45,,,,,,,
4.55,0.00063,-122.57,,,,,,,
4.57,0.00061,-124.64,,,,,,,
4.58,0.00058,-126.42,,,,,,,
4.6,0.00056,-128.11,,,,,,,
4.62,0.00053,-129.6,,,,,,,
4.63,0.00051,-130.99,,,,,,,
4.66,0.00048,-132.35,,,,,,,
4.68,0.00046,-133.81,,,,,,,
4.71,0.00043,-135.28,,,,,,,
4.74,0.00041,-136.91,,,,,,,
4.77,0.00038,-138.32,,,,,,,
4.8,0.00035,-139.88,,,,,,,
4.82,0.00034,-140.66,,,,,,,
4.83,0.00033,-141.14,,,,,,,
4.85,0.0003,-141.93,,,,,,,
4.86,0.00028,-142.6,,,,,,,
4.88,0.00025,-143.1,,,,,,,
4.89,0.00023,-143.57,,,,,,,
4.91,0.0002,-144.11,,,,,,,
4.93,0.00017,-144.71,,,,,,,
4.98,0.00015,-145.64,,,,,,,
5.05,0.00012,-148.13,,,,,,,
5.1,0.0001,-150.73,,,,,,,
5.12,7e-05,-152.06,,,,,,,
5.13,5e-05,-151.99,,,,,,,
5.14,2e-05,-151.45,,,,,,,
5.14,-1e-05,-151.42,,,,,,,
5.14,-5e-05,-151.48,,,,,,,
5.15,-8e-05,-151.63,,,,,,,
5.15,-0.00011,-151.77,,,,,,,
5.15,-0.00014,-151.98,,,,,,,
5.17,-0.00016,-152.43,,,,,,,
5.18,-0.00019,-152.48,,,,,,,
5.45,-0.00022,-151.55,,,,,,,
5.48,-0.00024,-155.2,,,,,,,
5.51,-0.00027,-158.91,,,,,,,
5.53,-0.00029,-160.93,,,,,,,
5.54,-0.00032,-160.15,,,,,,,
5.54,-0.00035,-160.38,,,,,,,
5.55,-0.00038,-160.55,,,,,,,
5.55,-0.00041,-160.72,,,,,,,
5.55,-0.00043,-160.92,,,,,,,
5.55,-0.00046,-161.25,,,,,,,
5.56,-0.00049,-162.27,,,,,,,
5.57,-0.00051,-162.67,,,,,,,
5.58,-0.00054,-162.87,,,,,,,
5.58,-0.00057,-162.92,,,,,,,
5.59,-0.00059,-162.84,,,,,,,
5.59,-0.00062,-162.68,,,,,,,
5.6,-0.00065,-162.35,,,,,,,
5.61,-0.00067,-161.99,,,,,,,
5.61,-0.0007,-161.65,,,,,,,
5.69,-0.00067,-151.57,,,,,,,
5.72,-0.00065,-147.74,,,,,,,
5.75,-0.00062,-144.29,,,,,,,
5.82,-0.00061,-142.58,,,,,,,
5.89,-0.00065,-148.65,,,,,,,
5.92,-0.00068,-152.32,,,,,,,
5.94,-0.0007,-155.65,,,,,,,
5.97,-0.00073,-159.19,,,,,,,
5.99,-0.00075,-163.02,,,,,,,
6.02,-0.00078,-166.35,,,,,,,
6.04,-0.0008,-169.68,,,,,,,
6.05,-0.00083,-167.52,,,,,,,
6.06,-0.00087,-167.81,,,,,,,
6.06,-0.00091,-168.01,,,,,,,
6.06,-0.00095,-168.21,,,,,,,
6.06,-0.00099,-168.45,,,,,,,
6.06,-0.00101,-168.66,,,,,,,
6.08,-0.00104,-169.73,,,,,,,
6.08,-0.00107,-169.7,,,,,,,
6.09,-0.00109,-169.45,,,,,,,
6.09,-0.00112,-169.36,,,,,,,
6.1,-0.00115,-169.36,,,,,,,
6.1,-0.00118,-169.38,,,,,,,
6.11,-0.00121,-169.31,,,,,,,
6.19,-0.00118,-159.39,,,,,,,
6.21,-0.00116,-155.74,,,,,,,
6.24,-0.00113,-152.17,,,,,,,
6.3,-0.00111,-148.94,,,,,,,
6.38,-0.00113,-153.94,,,,,,,
6.41,-0.00116,-157.58,,,,,,,
6.44,-0.00118,-161.34,,,,,,,
6.46,-0.00121,-165.12,,,,,,,
6.49,-0.00123,-168.86,,,,,,,
6.51,-0.00126,-172.66,,,,,,,
6.54,-0.00129,-170.05,,,,,,,
6.54,-0.00132,-170.65,,,,,,,
6.55,-0.00134,-171.11,,,,,,,
6.55,-0.00137,-171.95,,,,,,,
6.57,-0.0014,-174.03,,,,,,,
6.58,-0.00143,-174.1,,,,,,,
6.58,-0.00145,-174.05,,,,,,,
6.58,-0.00148,-174.23,,,,,,,
6.59,-0.00152,-174.48,,,,,,,
6.59,-0.00155,-174.78,,,,,,,
6.6,-0.00158,-175.07,,,,,,,
6.61,-0.0016,-175.62,,,,,,,
6.64,-0.00163,-175.48,,,,,,,
6.82,-0.00161,-169.82,,,,,,,
6.9,-0.00165,-175.95,,,,,,,
6.93,-0.00168,-179.39,,,,,,,
6.94,-0.00171,-173.56,,,,,,,
6.94,-0.00175,-173.9,,,,,,,
6.94,-0.00178,-174.05,,,,,,,
6.94,-0.0018,-174.15,,,,,,,
6.94,-0.00184,-174.27,,,,,,,
6.94,-0.00187,-174.34,,,,,,,
6.94,-0.0019,-174.43,,,,,,,
6.94,-0.00193,-174.56,,,,,,,
6.95,-0.00196,-174.73,,,,,,,
6.95,-0.002,-175.01,,,,,,,
6.95,-0.00203,-175.38,,,,,,,
6.97,-0.00206,-176.38,,,,,,,
6.99,-0.00208,-175.83,,,,,,,
7.04,-0.00206,-169.45,,,,,,,
7.07,-0.00203,-165.07,,,,,,,
7.1,-0.00201,-161.62,,,,,,,
7.15,-0.00198,-158.13,,,,,,,
7.25,-0.00201,-162.59,,,,,,,
7.28,-0.00203,-166.16,,,,,,,
7.31,-0.00206,-169.93,,,,,,,
7.33,-0.00208,-173.68,,,,,,,
7.35,-0.00211,-176.88,,,,,,,
7.38,-0.00213,-180.4,,,,,,,
7.39,-0.00216,-175.48,,,,,,,
7.39,-0.0022,-175.52,,,,,,,
7.4,-0.00222,-175.75,,,,,,,
7.4,-0.00226,-176.0,,,,,,,
7.4,-0.00231,-176.13,,,,,,,
7.4,-0.00237,-176.22,,,,,,,
7.4,-0.00243,-176.38,,,,,,,
7.4,-0.0025,-176.49,,,,,,,
7.4,-0.00256,-176.63,,,,,,,
7.4,-0.00263,-176.8,,,,,,,
7.4,-0.00268,-176.93,,,,,,,
7.4,-0.00273,-177.1,,,,,,,
7.41,-0.00276,-177.26,,,,,,,
7.41,-0.00279,-177.35,,,,,,,
7.41,-0.00275,-178.23,,,,,,,
7.42,-0.00273,-178.28,,,,,,,
7.42,-0.00275,-178.19,,,,,,,
7.47,-0.00273,-168.39,,,,,,,
7.48,-0.0027,-164.4,,,,,,,
7.49,-0.00267,-160.11,,,,,,,
7.5,-0.00265,-156.29,,,,,,,
7.51,-0.00262,-152.12,,,,,,,
7.52,-0.0026,-148.38,,,,,,,
7.53,-0.00257,-144.58,,,,,,,
7.54,-0.00254,-140.84,,,,,,,
7.56,-0.00252,-137.44,,,,,,,
7.57,-0.00249,-133.64,,,,,,,
7.59,-0.00246,-130.24,,,,,,,
7.62,-0.00244,-127.09,,,,,,,
7.72,-0.00246,-131.59,,,,,,,
7.82,-0.00249,-133.98,,,,,,,
7.91,-0.00244,-126.77,,,,,,,
7.94,-0.00241,-123.03,,,,,,,
7.97,-0.00239,-118.93,,,,,,,
7.99,-0.00236,-114.76,,,,,,,
8.02,-0.00234,-110.28,,,,,,,
8.05,-0.00231,-106.01,,,,,,,
8.08,-0.00229,-101.99,,,,,,,
8.1,-0.00226,-98.21,,,,,,,
8.13,-0.00224,-94.34,,,,,,,
8.15,-0.00221,-90.53,,,,,,,
8.18,-0.00219,-86.57,,,,,,,
8.21,-0.00216,-82.45,,,,,,,
8.24,-0.00213,-78.53,,,,,,,
8.26,-0.00211,-75.09,,,,,,,
8.29,-0.00208,-71.61,,,,,,,
8.32,-0.00206,-67.54,,,,,,,
8.34,-0.00203,-64.15,,,,,,,
8.37,-0.00201,-60.85,,,,,,,
8.39,-0.00198,-57.56,,,,,,,
8.42,-0.00196,-53.94,,,,,,,
8.45,-0.00193,-50.23,,,,,,,
8.47,-0.00191,-46.65,,,,,,,
8.5,-0.00188,-42.97,,,,,,,
8.53,-0.00186,-39.2,,,,,,,
8.56,-0.00183,-35.64,,,,,,,
8.59,-0.0018,-31.89,,,,,,,
8.62,-0.00178,-27.82,,,,,,,
8.65,-0.00175,-23.73,,,,,,,
8.68,-0.00173,-19.9,,,,,,,
8.71,-0.0017,-15.76,,,,,,,
8.74,-0.00168,-11.77,,,,,,,
8.77,-0.00165,-7.81,,,,,,,
8.79,-0.00163,-4.07,,,,,,,
8.82,-0.0016,-0.52,,,,,,,
8.82,-0.0016,-0.24,,,,,,,
8.85,-0.00157,3.26,,,,,,,
8.88,-0.00155,7.34,,,,,,,
8.91,-0.00152,11.48,,,,,,,
8.94,-0.0015,15.29,,,,,,,
8.96,-0.00147,19.41,,,,,,,
8.99,-0.00145,23.36,,,,,,,
9.02,-0.00142,27.02,,,,,,,
9.06,-0.0014,30.43,,,,,,,
9.12,-0.00137,34.45,,,,,,,
9.18,-0.00135,37.79,,,,,,,
9.22,-0.00132,42.64,,,,,,,
9.25,-0.0013,46.76,,,,,,,
9.28,-0.00127,50.2,,,,,,,
9.3,-0.00125,54.49,,,,,,,
9.32,-0.00122,58.23,,,,,,,
9.34,-0.00119,61.91,,,,,,,
9.36,-0.00117,65.49,,,,,,,
9.38,-0.00114,69.42,,,,,,,
9.41,-0.00112,72.92,,,,,,,
9.43,-0.00109,76.36,,,,,,,
9.46,-0.00107,79.62,,,,,,,
9.5,-0.00104,83.1,,,,,,,
9.53,-0.00102,86.56,,,,,,,
9.56,-0.00099,89.93,,,,,,,
9.6,-0.00097,93.28,,,,,,,
9.63,-0.00094,96.44,,,,,,,
9.66,-0.00092,100.27,,,,,,,
9.68,-0.00089,104.16,,,,,,,
9.7,-0.00086,107.48,,,,,,,
9.71,-0.00084,110.92,,,,,,,
9.73,-0.00081,114.35,,,,,,,
9.75,-0.00079,117.62,,,,,,,
9.76,-0.00076,121.08,,,,,,,
9.78,-0.00073,124.25,,,,,,,
9.79,-0.00071,127.09,,,,,,,
9.81,-0.00068,129.39,,,,,,,
9.82,-0.00066,131.61,,,,,,,
9.83,-0.00063,133.38,,,,,,,
9.84,-0.0006,134.96,,,,,,,
9.85,-0.00058,136.44,,,,,,,
9.86,-0.00055,137.78,,,,,,,
9.87,-0.00052,138.94,,,,,,,
9.88,-0.0005,140.01,,,,,,,
9.89,-0.00047,140.91,,,,,,,
9.9,-0.00045,141.91,,,,,,,
9.92,-0.00042,142.82,,,,,,,
9.94,-0.00039,143.7,,,,,,,
9.96,-0.00037,144.5,,,,,,,
10.01,-0.00034,145.16,,,,,,,
10.1,-0.00032,148.01,,,,,,,
10.14,-0.00029,150.55,,,,,,,
10.17,-0.00027,153.02,,,,,,,
10.19,-0.00024,154.63,,,,,,,
10.2,-0.00021,153.2,,,,,,,
10.2,-0.00019,153.02,,,,,,,
10.21,-0.00016,153.13,,,,,,,
10.21,-0.00013,153.29,,,,,,,
10.21,-0.0001,153.47,,,,,,,
10.21,-7e-05,153.7,,,,,,,
10.23,-4e-05,154.43,,,,,,,
10.23,-2e-05,154.71,,,,,,,
10.25,1e-05,154.81,,,,,,,
10.26,4e-05,154.66,,,,,,,
10.52,6e-05,154.14,,,,,,,
10.55,9e-05,157.73,,,,,,,
10.58,0.00011,160.88,,,,,,,
10.6,0.00014,163.79,,,,,,,
10.62,0.00016,164.96,,,,,,,
10.63,0.0002,163.4,,,,,,,
10.63,0.00023,163.45,,,,,,,
10.63,0.00027,163.54,,,,,,,
10.63,0.00031,163.68,,,,,,,
10.63,0.00036,163.8,,,,,,,
10.64,0.0004,163.98,,,,,,,
10.64,0.00042,164.11,,,,,,,
10.64,0.00045,164.33,,,,,,,
10.65,0.00048,164.76,,,,,,,
10.66,0.0005,164.88,,,,,,,
10.67,0.00053,164.78,,,,,,,
10.75,0.0005,155.19,,,,,,,
10.78,0.00048,150.91,,,,,,,
10.82,0.00045,147.49,,,,,,,
10.82,0.00045,147.37,,,,,,,
10.93,0.00048,150.35,,,,,,,
10.96,0.0005,153.7,,,,,,,
10.99,0.00053,157.28,,,,,,,
11.01,0.00055,160.43,,,,,,,
11.04,0.00058,163.54,,,,,,,
11.06,0.00061,166.95,,,,,,,
11.08,0.00063,170.09,,,,,,,
11.1,0.00066,167.03,,,,,,,
11.11,0.00069,167.31,,,,,,,
11.11,0.00072,167.56,,,,,,,
11.11,0.00076,167.79,,,,,,,
11.11,0.0008,168.0,,,,,,,
11.12,0.00083,168.33,,,,,,,
11.12,0.00087,168.67,,,,,,,
11.15,0.00089,171.06,,,,,,,
11.37,0.00092,172.06,,,,,,,
11.4,0.00094,175.38,,,,,,,
11.43,0.00097,177.89,,,,,,,
11.44,0.00099,173.13,,,,,,,
11.44,0.00104,173.44,,,,,,,
11.44,0.00108,173.66,,,,,,,
11.44,0.00111,173.75,,,,,,,
11.44,0.00114,173.83,,,,,,,
11.44,0.00117,173.93,,,,,,,
11.44,0.00119,174.06,,,,,,,
11.45,0.00124,174.36,,,,,,,
11.45,0.00127,174.51,,,,,,,
11.47,0.00129,175.9,,,,,,,
11.59,0.00127,165.82,,,,,,,
11.75,0.00129,169.39,,,,,,,
11.78,0.00132,172.76,,,,,,,
11.81,0.00134,176.36,,,,,,,
11.82,0.00136,177.91,,,,,,,
11.83,0.00137,179.75,,,,,,,
11.85,0.0014,174.83,,,,,,,
11.85,0.00144,174.89,,,,,,,
11.85,0.00147,175.06,,,,,,,
11.85,0.00151,175.27,,,,,,,
11.85,0.00156,175.41,,,,,,,
11.86,0.00161,175.56,,,,,,,
11.86,0.00167,175.71,,,,,,,
11.86,0.00173,175.76,,,,,,,
11.86,0.00179,175.86,,,,,,,
11.86,0.00185,176.03,,,,,,,
11.86,0.0019,176.23,,,,,,,
11.86,0.00194,176.45,,,,,,,
11.86,0.00197,176.58,,,,,,,
11.86,0.002,176.83,,,,,,,
11.87,0.00197,177.45,,,,,,,
11.87,0.00194,177.62,,,,,,,
11.88,0.00197,177.47,,,,,,,
11.92,0.00194,170.08,,,,,,,
11.94,0.00192,165.31,,,,,,,
11.95,0.00189,161.05,,,,,,,
11.96,0.00186,157.54,,,,,,,
11.97,0.00184,153.67,,,,,,,
11.98,0.00181,149.98,,,,,,,
11.99,0.00179,146.04,,,,,,,
12.0,0.00176,142.9,,,,,,,
12.02,0.00174,139.1,,,,,,,
12.03,0.00171,135.7,,,,,,,
12.05,0.00168,132.61,,,,,,,
12.19,0.00171,138.44,,,,,,,
12.21,0.00173,142.21,,,,,,,
12.23,0.00176,145.84,,,,,,,
12.25,0.00179,149.57,,,,,,,
12.27,0.00181,153.16,,,,,,,
12.29,0.00184,156.6,,,,,,,
12.31,0.00186,160.15,,,,,,,
12.33,0.00189,163.51,,,,,,,
12.35,0.00191,166.7,,,,,,,
12.38,0.00194,169.9,,,,,,,
12.4,0.00196,173.11,,,,,,,
12.43,0.00199,176.54,,,,,,,
12.45,0.00202,179.82,,,,,,,
12.48,0.00204,182.93,,,,,,,
12.5,0.00207,178.16,,,,,,,
12.5,0.0021,178.81,,,,,,,
12.51,0.00214,179.04,,,,,,,
12.51,0.00217,179.21,,,,,,,
12.51,0.0022,179.29,,,,,,,
12.51,0.00224,179.4,,,,,,,
12.51,0.00228,179.53,,,,,,,
12.51,0.00232,179.6,,,,,,,
12.51,0.00236,179.73,,,,,,,
12.51,0.00239,179.84,,,,,,,
12.51,0.00242,179.94,,,,,,,
12.52,0.00246,180.23,,,,,,,
12.53,0.00244,181.1,,,,,,,
12.54,0.00246,181.11,,,,,,,
12.59,0.00244,174.34,,,,,,,
12.61,0.00241,170.16,,,,,,,
12.63,0.00239,166.57,,,,,,,
12.65,0.00236,162.77,,,,,,,
12.68,0.00233,158.98,,,,,,,
12.82,0.00236,161.32,,,,,,,
12.82,0.00236,161.8,,,,,,,
12.85,0.00239,165.36,,,,,,,
12.88,0.00241,168.87,,,,,,,
12.9,0.00244,172.12,,,,,,,
12.92,0.00246,175.16,,,,,,,
12.94,0.00249,178.7,,,,,,,
12.96,0.00251,181.88,,,,,,,
12.98,0.00254,184.75,,,,,,,
13.0,0.00257,187.29,,,,,,,
13.02,0.00254,179.23,,,,,,,
13.09,0.00256,183.55,,,,,,,
13.2,0.00254,177.18,,,,,,,
13.23,0.00251,173.43,,,,,,,
13.25,0.00249,169.32,,,,,,,
13.28,0.00246,165.59,,,,,,,
13.3,0.00244,161.66,,,,,,,
13.33,0.00241,157.77,,,,,,,
13.35,0.00239,153.88,,,,,,,
13.38,0.00236,149.51,,,,,,,
13.41,0.00233,145.24,,,,,,,
13.43,0.00231,141.34,,,,,,,
13.46,0.00228,137.78,,,,,,,
13.49,0.00226,133.79,,,,,,,
13.52,0.00223,129.62,,,,,,,
13.55,0.00221,125.5,,,,,,,
13.57,0.00218,121.69,,,,,,,
13.61,0.00216,117.19,,,,,,,
13.63,0.00213,113.12,,,,,,,
13.66,0.0021,109.31,,,,,,,
13.69,0.00208,104.82,,,,,,,
13.72,0.00205,100.71,,,,,,,
13.75,0.00203,96.95,,,,,,,
13.78,0.002,93.07,,,,,,,
13.8,0.00198,89.27,,,,,,,
13.82,0.00196,86.79,,,,,,,
13.82,0.00195,86.01,,,,,,,
13.85,0.00193,82.66,,,,,,,
13.88,0.0019,79.07,,,,,,,
13.9,0.00188,75.17,,,,,,,
13.93,0.00185,71.69,,,,,,,
13.96,0.00182,68.46,,,,,,,
13.98,0.0018,64.99,,,,,,,
14.01,0.00177,61.36,,,,,,,
14.04,0.00175,58.09,,,,,,,
14.07,0.00172,54.43,,,,,,,
14.1,0.0017,50.01,,,,,,,
14.13,0.00167,46.45,,,,,,,
14.16,0.00165,42.82,,,,,,,
14.19,0.00162,38.51,,,,,,,
14.22,0.0016,34.7,,,,,,,
14.24,0.00157,31.15,,,,,,,
14.27,0.00154,27.37,,,,,,,
14.3,0.00152,23.85,,,,,,,
14.32,0.00149,20.74,,,,,,,
14.35,0.00147,16.98,,,,,,,
14.38,0.00144,13.32,,,,,,,
14.4,0.00142,10.32,,,,,,,
14.43,0.00139,7.26,,,,,,,
14.45,0.00137,3.91,,,,,,,
14.49,0.00134,0.06,,,,,,,
14.52,0.00132,-3.61,,,,,,,
14.55,0.00129,-7.53,,,,,,,
14.58,0.00126,-11.14,,,,,,,
14.6,0.00124,-14.61,,,,,,,
14.64,0.00121,-18.69,,,,,,,
14.68,0.00119,-22.05,,,,,,,
14.8,0.00116,-24.48,,,,,,,
14.82,0.00115,-25.87,,,,,,,
14.85,0.00114,-28.16,,,,,,,
14.89,0.00111,-31.99,,,,,,,
14.93,0.00109,-35.77,,,,,,,
14.97,0.00106,-40.05,,,,,,,
15.0,0.00104,-43.73,,,,,,,
15.03,0.00101,-47.5,,,,,,,
15.05,0.00099,-51.37,,,,,,,
15.07,0.00096,-55.61,,,,,,,
15.08,0.00093,-59.88,,,,,,,
15.09,0.00091,-63.73,,,,,,,
15.11,0.00088,-67.62,,,,,,,
15.12,0.00085,-71.26,,,,,,,
15.13,0.00083,-74.86,,,,,,,
15.14,0.0008,-78.6,,,,,,,
15.16,0.00078,-82.23,,,,,,,
15.17,0.00075,-85.81,,,,,,,
15.18,0.00072,-89.41,,,,,,,
15.2,0.0007,-92.84,,,,,,,
15.21,0.00067,-96.43,,,,,,,
15.23,0.00065,-100.0,,,,,,,
15.24,0.00062,-103.54,,,,,,,
15.26,0.0006,-107.24,,,,,,,
15.28,0.00057,-110.58,,,,,,,
15.3,0.00055,-114.27,,,,,,,
15.32,0.00052,-117.66,,,,,,,
15.34,0.00049,-120.78,,,,,,,
15.36,0.00047,-123.91,,,,,,,
15.38,0.00044,-126.8,,,,,,,
15.4,0.00042,-129.71,,,,,,,
15.42,0.00039,-132.09,,,,,,,
15.44,0.00037,-134.23,,,,,,,
15.46,0.00034,-136.08,,,,,,,
15.47,0.00031,-137.85,,,,,,,
15.49,0.00029,-139.7,,,,,,,
15.51,0.00026,-141.07,,,,,,,
15.53,0.00024,-142.44,,,,,,,
15.55,0.00021,-143.86,,,,,,,
15.58,0.00019,-145.26,,,,,,,
15.61,0.00016,-146.67,,,,,,,
15.64,0.00013,-148.15,,,,,,,
15.68,0.00011,-150.06,,,,,,,
15.7,8e-05,-151.39,,,,,,,
15.72,6e-05,-152.46,,,,,,,
15.74,3e-05,-153.07,,,,,,,
15.75,1e-05,-153.52,,,,,,,
15.76,-2e-05,-153.82,,,,,,,
15.77,-5e-05,-154.11,,,,,,,
15.78,-7e-05,-154.47,,,,,,,
15.8,-0.0001,-154.81,,,,,,,
15.82,-0.00011,-154.89,,,,,,,
15.84,-0.00013,-154.79,,,,,,,
15.93,-0.00015,-155.02,,,,,,,
15.99,-0.00018,-157.49,,,,,,,
16.03,-0.0002,-160.24,,,,,,,
16.06,-0.00023,-162.65,,,,,,,
16.08,-0.00025,-161.38,,,,,,,
16.09,-0.00028,-161.5,,,,,,,
16.09,-0.00031,-161.82,,,,,,,
16.09,-0.00034,-162.19,,,,,,,
16.11,-0.00037,-163.1,,,,,,,
16.12,-0.00039,-163.75,,,,,,,
16.13,-0.00042,-164.03,,,,,,,
16.15,-0.00044,-164.14,,,,,,,
16.16,-0.00047,-164.18,,,,,,,
16.18,-0.0005,-164.07,,,,,,,
16.21,-0.00052,-163.51,,,,,,,
16.35,-0.00055,-162.63,,,,,,,
16.4,-0.00057,-165.97,,,,,,,
16.44,-0.0006,-169.11,,,,,,,
16.46,-0.00062,-171.24,,,,,,,
16.47,-0.00065,-168.85,,,,,,,
16.47,-0.00069,-168.81,,,,,,,
16.47,-0.00073,-168.92,,,,,,,
16.48,-0.00075,-169.0,,,,,,,
16.48,-0.00078,-169.07,,,,,,,
16.48,-0.00081,-169.13,,,,,,,
16.48,-0.00084,-169.2,,,,,,,
16.48,-0.00087,-169.3,,,,,,,
16.48,-0.00089,-169.4,,,,,,,
16.48,-0.00093,-169.62,,,,,,,
16.48,-0.00096,-169.76,,,,,,,
16.59,-0.00094,-161.53,,,,,,,
16.62,-0.00091,-157.29,,,,,,,
16.66,-0.00089,-153.97,,,,,,,
16.77,-0.00091,-158.1,,,,,,,
16.8,-0.00094,-162.03,,,,,,,
16.82,-0.00095,-164.01,,,,,,,
16.83,-0.00096,-165.79,,,,,,,
16.86,-0.00099,-169.44,,,,,,,
16.88,-0.00101,-173.14,,,,,,,
16.9,-0.00104,-176.15,,,,,,,
16.92,-0.00107,-174.27,,,,,,,
16.93,-0.0011,-174.67,,,,,,,
16.93,-0.00114,-174.87,,,,,,,
16.93,-0.00119,-175.1,,,,,,,
16.93,-0.00123,-175.39,,,,,,,
16.94,-0.00126,-175.62,,,,,,,
16.94,-0.00129,-176.18,,,,,,,
16.96,-0.00131,-177.88,,,,,,,
16.98,-0.00134,-177.68,,,,,,,
17.0,-0.00136,-177.32,,,,,,,
17.24,-0.00139,-175.51,,,,,,,
17.27,-0.00141,-178.75,,,,,,,
17.3,-0.00144,-182.4,,,,,,,
17.31,-0.00147,-176.87,,,,,,,
17.32,-0.00151,-177.26,,,,,,,
17.32,-0.00155,-177.45,,,,,,,
17.32,-0.00158,-177.76,,,,,,,
17.32,-0.00161,-178.15,,,,,,,
17.35,-0.00164,-181.01,,,,,,,
17.38,-0.00166,-182.27,,,,,,,
17.45,-0.00169,-182.93,,,,,,,
17.53,-0.00171,-185.12,,,,,,,
17.55,-0.00174,-178.33,,,,,,,
17.55,-0.00178,-178.19,,,,,,,
17.55,-0.00181,-178.34,,,,,,,
17.55,-0.00184,-178.48,,,,,,,
17.55,-0.00188,-178.53,,,,,,,
17.56,-0.00193,-178.62,,,,,,,
17.56,-0.00198,-178.65,,,,,,,
17.56,-0.00203,-178.63,,,,,,,
17.56,-0.00207,-178.7,,,,,,,
17.56,-0.00211,-178.82,,,,,,,
17.56,-0.00215,-178.96,,,,,,,
17.56,-0.00218,-179.09,,,,,,,
17.56,-0.00221,-179.09,,,,,,,
17.57,-0.00218,-179.43,,,,,,,
17.57,-0.00216,-179.53,,,,,,,
17.63,-0.00213,-170.78,,,,,,,
17.65,-0.0021,-166.47,,,,,,,
17.66,-0.00208,-162.62,,,,,,,
17.68,-0.00205,-159.19,,,,,,,
17.69,-0.00203,-155.26,,,,,,,
17.71,-0.002,-151.72,,,,,,,
17.74,-0.00198,-148.16,,,,,,,
17.82,-0.00198,-147.6,,,,,,,
17.87,-0.002,-151.78,,,,,,,
17.89,-0.00203,-155.42,,,,,,,
17.92,-0.00205,-158.81,,,,,,,
17.94,-0.00208,-162.27,,,,,,,
17.96,-0.0021,-165.8,,,,,,,
17.98,-0.00213,-169.15,,,,,,,
18.01,-0.00216,-172.4,,,,,,,
18.03,-0.00218,-175.95,,,,,,,
18.06,-0.00221,-179.5,,,,,,,
18.08,-0.00223,-182.92,,,,,,,
18.1,-0.00226,-185.94,,,,,,,
18.11,-0.00229,-183.42,,,,,,,
18.11,-0.00232,-183.8,,,,,,,
18.12,-0.00236,-183.97,,,,,,,
18.12,-0.00239,-184.08,,,,,,,
18.12,-0.00242,-184.2,,,,,,,
18.12,-0.00245,-184.35,,,,,,,
18.12,-0.00247,-184.5,,,,,,,
18.12,-0.00252,-184.71,,,,,,,
18.12,-0.00254,-184.88,,,,,,,
18.21,-0.00252,-182.6,,,,,,,
18.39,-0.00254,-183.69,,,,,,,
18.43,-0.00257,-186.46,,,,,,,
18.59,-0.00254,-180.66,,,,,,,
18.62,-0.00252,-176.73,,,,,,,
18.65,-0.00249,-172.92,,,,,,,
18.67,-0.00247,-169.19,,,,,,,
18.7,-0.00244,-165.37,,,,,,,
18.72,-0.00242,-161.86,,,,,,,
18.74,-0.00239,-157.91,,,,,,,
18.77,-0.00237,-154.23,,,,,,,
18.8,-0.00234,-150.29,,,,,,,
18.82,-0.00232,-147.17,,,,,,,
18.82,-0.00232,-146.47,,,,,,,
18.85,-0.00229,-142.51,,,,,,,
18.88,-0.00226,-138.69,,,,,,,
18.9,-0.00224,-135.64,,,,,,,
18.93,-0.00221,-132.18,,,,,,,
18.96,-0.00219,-128.31,,,,,,,
18.99,-0.00216,-124.35,,,,,,,
19.02,-0.00214,-120.86,,,,,,,
19.04,-0.00211,-117.37,,,,,,,
19.07,-0.00209,-113.77,,,,,,,
19.1,-0.00206,-110.4,,,,,,,
19.12,-0.00203,-106.95,,,,,,,
19.15,-0.00201,-103.38,,,,,,,
19.18,-0.00198,-100.03,,,,,,,
19.21,-0.00196,-96.45,,,,,,,
19.23,-0.00193,-92.81,,,,,,,
19.26,-0.00191,-89.25,,,,,,,
19.29,-0.00188,-85.58,,,,,,,
19.32,-0.00186,-81.95,,,,,,,
19.35,-0.00183,-78.14,,,,,,,
19.38,-0.00181,-74.43,,,,,,,
19.41,-0.00178,-70.65,,,,,,,
19.43,-0.00175,-67.16,,,,,,,
19.46,-0.00173,-63.12,,,,,,,
19.49,-0.0017,-59.29,,,,,,,
19.52,-0.00168,-55.38,,,,,,,
19.55,-0.00165,-51.42,,,,,,,
19.58,-0.00163,-47.48,,,,,,,
19.61,-0.0016,-43.76,,,,,,,
19.63,-0.00158,-40.16,,,,,,,
19.66,-0.00155,-36.38,,,,,,,
19.68,-0.00152,-32.95,,,,,,,
19.71,-0.0015,-29.65,,,,,,,
19.73,-0.00147,-26.34,,,,,,,
19.76,-0.00145,-22.64,,,,,,,
19.79,-0.00142,-19.21,,,,,,,
19.82,-0.0014,-15.61,,,,,,,
19.82,-0.0014,-15.39,,,,,,,
19.85,-0.00137,-11.97,,,,,,,
19.87,-0.00135,-8.34,,,,,,,
19.91,-0.00132,-4.52,,,,,,,
19.93,-0.00129,-0.74,,,,,,,
19.96,-0.00127,2.88,,,,,,,
19.99,-0.00124,6.38,,,,,,,
20.02,-0.00122,9.94,,,,,,,
20.04,-0.00119,13.48,,,,,,,
20.07,-0.00117,17.27,,,,,,,
20.1,-0.00114,20.99,,,,,,,
20.13,-0.00112,24.57,,,,,,,
20.16,-0.00109,28.11,,,,,,,
20.21,-0.00107,31.32,,,,,,,
20.27,-0.00104,35.24,,,,,,,
20.32,-0.00102,39.17,,,,,,,
20.35,-0.00099,43.11,,,,,,,
20.38,-0.00097,46.55,,,,,,,
20.41,-0.00094,50.85,,,,,,,
20.43,-0.00091,54.49,,,,,,,
20.45,-0.00089,58.11,,,,,,,
20.47,-0.00086,61.64,,,,,,,
20.49,-0.00084,65.2,,,,,,,
20.51,-0.00081,68.57,,,,,,,
20.54,-0.00079,71.86,,,,,,,
20.57,-0.00076,75.11,,,,,,,
20.6,-0.00074,78.42,,,,,,,
20.64,-0.00071,81.64,,,,,,,
20.67,-0.00068,84.78,,,,,,,
20.71,-0.00066,88.25,,,,,,,
20.74,-0.00063,91.46,,,,,,,
20.77,-0.00061,94.88,,,,,,,
20.8,-0.00058,98.55,,,,,,,
20.82,-0.00056,101.35,,,,,,,
20.83,-0.00056,102.53,,,,,,,
20.85,-0.00053,106.24,,,,,,,
20.87,-0.00051,110.1,,,,,,,
20.88,-0.00048,113.77,,,,,,,
20.9,-0.00045,117.55,,,,,,,
20.92,-0.00043,121.02,,,,,,,
20.93,-0.0004,124.43,,,,,,,
20.95,-0.00038,127.71,,,,,,,
20.96,-0.00035,130.53,,,,,,,
20.97,-0.00033,133.26,,,,,,,
20.99,-0.0003,135.71,,,,,,,
21.0,-0.00027,137.69,,,,,,,
21.01,-0.00025,139.68,,,,,,,
21.02,-0.00022,141.21,,,,,,,
21.03,-0.00019,142.49,,,,,,,
21.04,-0.00017,143.83,,,,,,,
21.05,-0.00014,144.94,,,,,,,
21.07,-0.00012,145.98,,,,,,,
43.92,-0.00012,164.38,,,,,,,
43.95,-9e-05,166.1,,,,,,,
43.98,-7e-05,167.44,,,,,,,
44.0,-4e-05,168.59,,,,,,,
44.02,-1e-05,169.12,,,,,,,
44.03,1e-05,169.11,,,,,,,
44.04,4e-05,169.09,,,,,,,
44.05,7e-05,169.26,,,,,,,
44.06,9e-05,169.56,,,,,,,
44.08,0.00012,169.92,,,,,,,
44.13,0.00014,169.88,,,,,,,
44.21,0.00017,170.63,,,,,,,
44.25,0.00019,172.67,,,,,,,
44.28,0.00022,174.76,,,,,,,
44.31,0.00024,176.86,,,,,,,
44.32,0.00027,173.68,,,,,,,
44.33,0.00031,173.83,,,,,,,
44.33,0.00035,173.95,,,,,,,
44.33,0.0004,174.07,,,,,,,
44.33,0.00045,174.22,,,,,,,
44.33,0.00048,174.43,,,,,,,
44.34,0.00051,174.67,,,,,,,
44.48,0.00049,166.34,,,,,,,
44.61,0.00051,168.88,,,,,,,
44.64,0.00054,171.81,,,,,,,
44.66,0.00057,174.83,,,,,,,
44.69,0.00059,178.02,,,,,,,
44.71,0.00062,181.24,,,,,,,
44.74,0.00064,184.0,,,,,,,
44.77,0.00067,185.23,,,,,,,
44.79,0.0007,180.6,,,,,,,
44.79,0.00073,180.64,,,,,,,
44.79,0.00076,180.79,,,,,,,
44.79,0.00079,181.01,,,,,,,
44.79,0.00084,181.14,,,,,,,
44.79,0.00089,181.25,,,,,,,
44.79,0.00095,181.38,,,,,,,
44.8,0.001,181.46,,,,,,,
44.8,0.00106,181.57,,,,,,,
44.8,0.00112,181.69,,,,,,,
44.8,0.00116,181.83,,,,,,,
44.8,0.0012,182.01,,,,,,,
44.8,0.00124,182.17,,,,,,,
44.8,0.00127,182.33,,,,,,,
44.81,0.00124,182.86,,,,,,,
44.81,0.00122,182.96,,,,,,,
44.82,0.00123,182.74,,,,,,,
44.82,0.00124,182.73,,,,,,,
44.86,0.00122,175.04,,,,,,,
44.88,0.00119,170.24,,,,,,,
44.89,0.00116,166.26,,,,,,,
44.9,0.00114,161.88,,,,,,,
44.91,0.00111,158.0,,,,,,,
44.92,0.00109,154.29,,,,,,,
44.94,0.00106,150.3,,,,,,,
44.95,0.00103,146.83,,,,,,,
44.97,0.00101,143.36,,,,,,,
44.99,0.00098,140.02,,,,,,,
45.04,0.00096,137.46,,,,,,,
45.1,0.00098,141.58,,,,,,,
45.13,0.00101,145.58,,,,,,,
45.15,0.00103,149.21,,,,,,,
45.17,0.00106,152.86,,,,,,,
45.19,0.00108,156.54,,,,,,,
45.21,0.00111,160.09,,,,,,,
45.23,0.00114,163.57,,,,,,,
45.25,0.00116,166.99,,,,,,,
45.27,0.00119,170.01,,,,,,,
45.3,0.00121,173.32,,,,,,,
45.32,0.00124,176.43,,,,,,,
45.34,0.00126,179.56,,,,,,,
45.37,0.00129,182.62,,,,,,,
45.39,0.00131,185.68,,,,,,,
45.42,0.00134,188.52,,,,,,,
45.45,0.00136,190.41,,,,,,,
45.46,0.00139,191.24,,,,,,,
45.48,0.00142,192.4,,,,,,,
45.49,0.00144,191.66,,,,,,,
45.49,0.00148,191.82,,,,,,,
45.49,0.00151,191.99,,,,,,,
45.5,0.00154,192.14,,,,,,,
45.5,0.00157,192.29,,,,,,,
45.5,0.00159,192.61,,,,,,,
45.52,0.00162,191.75,,,,,,,
45.53,0.00165,190.42,,,,,,,
45.53,0.00168,190.38,,,,,,,
45.54,0.00171,190.4,,,,,,,
45.64,0.00168,181.93,,,,,,,
45.81,0.00171,183.41,,,,,,,
45.82,0.00172,184.8,,,,,,,
45.84,0.00173,186.73,,,,,,,
45.86,0.00176,189.82,,,,,,,
45.88,0.00178,192.99,,,,,,,
45.91,0.00181,196.22,,,,,,,
45.93,0.00183,199.35,,,,,,,
45.94,0.00187,194.65,,,,,,,
45.94,0.0019,194.98,,,,,,,
45.95,0.00194,195.18,,,,,,,
45.95,0.00198,195.35,,,,,,,
45.95,0.00203,195.6,,,,,,,
45.95,0.00206,195.9,,,,,,,
45.98,0.00208,196.11,,,,,,,
46.0,0.00211,195.65,,,,,,,
46.22,0.00214,193.67,,,,,,,
46.26,0.00216,197.02,,,,,,,
46.29,0.00219,200.7,,,,,,,
46.32,0.00221,200.8,,,,,,,
46.32,0.00225,194.25,,,,,,,
46.32,0.00228,194.32,,,,,,,
46.32,0.00233,194.54,,,,,,,
46.32,0.00238,194.75,,,,,,,
46.33,0.00245,194.83,,,,,,,
46.33,0.00253,194.97,,,,,,,
46.33,0.00261,195.1,,,,,,,
46.33,0.00269,195.17,,,,,,,
46.33,0.00277,195.28,,,,,,,
46.33,0.00285,195.41,,,,,,,
46.33,0.00291,195.57,,,,,,,
46.33,0.00296,195.8,,,,,,,
46.33,0.003,195.9,,,,,,,
46.33,0.00303,195.94,,,,,,,
46.34,0.00299,196.53,,,,,,,
46.34,0.00296,196.57,,,,,,,
46.34,0.00293,196.52,,,,,,,
46.35,0.00296,196.19,,,,,,,
46.36,0.00298,195.49,,,,,,,
46.37,0.00296,191.04,,,,,,,
46.39,0.00293,185.83,,,,,,,
46.4,0.0029,181.2,,,,,,,
46.41,0.00288,176.83,,,,,,,
46.41,0.00285,172.61,,,,,,,
46.42,0.00283,168.47,,,,,,,
46.43,0.0028,164.29,,,,,,,
46.44,0.00277,160.17,,,,,,,
46.44,0.00274,156.24,,,,,,,
46.45,0.00272,152.35,,,,,,,
46.46,0.00269,148.66,,,,,,,
46.47,0.00266,144.84,,,,,,,
46.48,0.00264,141.17,,,,,,,
46.49,0.00261,137.57,,,,,,,
46.5,0.00259,134.15,,,,,,,
46.51,0.00256,130.53,,,,,,,
46.53,0.00253,127.22,,,,,,,
46.55,0.00251,124.22,,,,,,,
46.65,0.00253,129.54,,,,,,,
46.67,0.00256,133.4,,,,,,,
46.69,0.00258,136.99,,,,,,,
46.71,0.00261,140.63,,,,,,,
46.73,0.00264,144.28,,,,,,,
46.75,0.00266,147.71,,,,,,,
46.77,0.00269,151.11,,,,,,,
46.79,0.00271,154.66,,,,,,,
46.81,0.00274,157.76,,,,,,,
46.82,0.00275,159.53,,,,,,,
46.83,0.00276,161.13,,,,,,,
46.85,0.00279,164.38,,,,,,,
46.88,0.00281,167.59,,,,,,,
46.9,0.00284,170.84,,,,,,,
46.93,0.00287,173.97,,,,,,,
46.96,0.00289,176.94,,,,,,,
47.13,0.00286,168.05,,,,,,,
47.16,0.00284,163.63,,,,,,,
47.19,0.00281,159.64,,,,,,,
47.21,0.00279,155.71,,,,,,,
47.23,0.00276,151.65,,,,,,,
47.26,0.00274,147.75,,,,,,,
47.28,0.00271,143.93,,,,,,,
47.31,0.00269,139.72,,,,,,,
47.33,0.00266,135.65,,,,,,,
47.36,0.00264,131.75,,,,,,,
47.39,0.00261,127.56,,,,,,,
47.42,0.00258,123.68,,,,,,,
47.44,0.00256,119.77,,,,,,,
47.47,0.00253,115.8,,,,,,,
47.5,0.00251,111.85,,,,,,,
47.53,0.00248,107.63,,,,,,,
47.56,0.00246,103.62,,,,,,,
47.59,0.00243,99.76,,,,,,,
47.62,0.00241,95.85,,,,,,,
47.64,0.00238,92.2,,,,,,,
47.67,0.00236,88.36,,,,,,,
47.7,0.00233,84.39,,,,,,,
47.73,0.0023,80.65,,,,,,,
47.75,0.00228,76.89,,,,,,,
47.78,0.00225,72.85,,,,,,,
47.81,0.00223,69.03,,,,,,,
47.82,0.00222,67.95,,,,,,,
47.84,0.0022,65.05,,,,,,,
47.87,0.00218,61.07,,,,,,,
47.9,0.00215,57.23,,,,,,,
47.93,0.00213,53.28,,,,,,,
47.95,0.0021,49.46,,,,,,,
47.98,0.00208,45.69,,,,,,,
48.01,0.00205,42.07,,,,,,,
48.03,0.00203,38.67,,,,,,,
48.06,0.002,34.95,,,,,,,
48.09,0.00197,31.18,,,,,,,
48.12,0.00195,27.23,,,,,,,
48.14,0.00192,23.41,,,,,,,
48.17,0.0019,19.8,,,,,,,
48.2,0.00187,16.18,,,,,,,
48.23,0.00185,12.67,,,,,,,
48.25,0.00182,9.06,,,,,,,
48.28,0.0018,5.32,,,,,,,
48.31,0.00177,1.55,,,,,,,
48.34,0.00175,-1.87,,,,,,,
48.37,0.00172,-5.58,,,,,,,
48.39,0.00169,-9.13,,,,,,,
48.42,0.00167,-12.72,,,,,,,
48.45,0.00164,-16.11,,,,,,,
48.48,0.00162,-19.61,,,,,,,
48.52,0.00159,-22.6,,,,,,,
48.65,0.00157,-25.05,,,,,,,
48.7,0.00154,-28.9,,,,,,,
48.74,0.00152,-32.41,,,,,,,
48.78,0.00149,-35.87,,,,,,,
48.82,0.00147,-39.57,,,,,,,
48.82,0.00146,-39.76,,,,,,,
48.85,0.00144,-43.54,,,,,,,
48.87,0.00142,-47.2,,,,,,,
48.89,0.00139,-51.45,,,,,,,
48.91,0.00136,-56.03,,,,,,,
48.92,0.00134,-59.67,,,,,,,
48.94,0.00131,-63.48,,,,,,,
48.95,0.00129,-67.01,,,,,,,
48.96,0.00126,-70.83,,,,,,,
48.97,0.00124,-74.35,,,,,,,
48.98,0.00121,-77.99,,,,,,,
49.0,0.00118,-81.52,,,,,,,
49.01,0.00116,-84.99,,,,,,,
49.02,0.00113,-88.51,,,,,,,
49.04,0.0011,-92.13,,,,,,,
49.05,0.00108,-95.63,,,,,,,
49.07,0.00105,-98.89,,,,,,,
49.08,0.00103,-102.2,,,,,,,
49.1,0.001,-105.58,,,,,,,
49.12,0.00098,-108.75,,,,,,,
49.13,0.00095,-111.89,,,,,,,
49.15,0.00092,-114.98,,,,,,,
49.17,0.0009,-118.15,,,,,,,
49.19,0.00087,-121.31,,,,,,,
49.21,0.00085,-124.3,,,,,,,
49.24,0.00082,-127.21,,,,,,,
49.26,0.0008,-130.25,,,,,,,
49.29,0.00077,-133.36,,,,,,,
49.31,0.00075,-136.13,,,,,,,
49.34,0.00072,-138.88,,,,,,,
49.37,0.00069,-141.75,,,,,,,
49.39,0.00067,-144.25,,,,,,,
49.41,0.00064,-146.69,,,,,,,
49.44,0.00062,-149.15,,,,,,,
49.46,0.00059,-151.41,,,,,,,
49.49,0.00057,-153.3,,,,,,,
49.51,0.00054,-154.92,,,,,,,
49.52,0.00052,-156.04,,,,,,,
49.53,0.00049,-156.96,,,,,,,
49.55,0.00046,-157.73,,,,,,,
49.56,0.00044,-158.34,,,,,,,
49.57,0.00041,-158.9,,,,,,,
49.58,0.00039,-159.56,,,,,,,
49.61,0.00036,-160.13,,,,,,,
49.65,0.00034,-160.55,,,,,,,
49.72,0.00031,-161.57,,,,,,,
49.77,0.00029,-163.51,,,,,,,
49.81,0.00026,-165.91,,,,,,,
49.82,0.00025,-166.91,,,,,,,
49.84,0.00024,-168.46,,,,,,,
49.87,0.00021,-170.66,,,,,,,
49.88,0.00018,-170.79,,,,,,,
49.89,0.00016,-169.8,,,,,,,
49.92,0.00013,-171.47,,,,,,,
49.93,0.0001,-172.82,,,,,,,
49.95,8e-05,-172.06,,,,,,,
49.96,5e-05,-171.87,,,,,,,
49.96,2e-05,-171.8,,,,,,,
49.96,-2e-05,-171.85,,,,,,,
49.96,-5e-05,-171.96,,,,,,,
49.97,-8e-05,-172.04,,,,,,,
49.97,-0.0001,-172.13,,,,,,,
49.98,-0.00013,-172.18,,,,,,,
49.99,-0.00016,-172.23,,,,,,,
50.0,-0.00018,-171.92,,,,,,,
50.08,-0.00016,-164.66,,,,,,,
50.12,-0.00013,-160.18,,,,,,,
50.26,-0.00016,-162.26,,,,,,,
50.29,-0.00019,-165.41,,,,,,,
50.31,-0.00021,-168.39,,,,,,,
50.34,-0.00024,-171.56,,,,,,,
50.36,-0.00026,-174.66,,,,,,,
50.38,-0.00029,-177.65,,,,,,,
50.41,-0.00031,-180.5,,,,,,,
50.43,-0.00034,-183.29,,,,,,,
50.45,-0.00036,-185.09,,,,,,,
50.46,-0.0004,-182.79,,,,,,,
50.46,-0.00043,-182.88,,,,,,,
50.46,-0.00048,-183.0,,,,,,,
50.46,-0.0005,-183.06,,,,,,,
50.46,-0.00053,-183.13,,,,,,,
50.46,-0.00056,-183.22,,,,,,,
50.46,-0.00059,-183.31,,,,,,,
50.47,-0.00063,-183.51,,,,,,,
50.47,-0.00066,-183.7,,,,,,,
50.48,-0.00069,-184.76,,,,,,,
50.5,-0.00072,-184.66,,,,,,,
50.57,-0.00069,-175.45,,,,,,,
50.6,-0.00067,-171.27,,,,,,,
50.63,-0.00064,-167.21,,,,,,,
50.77,-0.00067,-169.8,,,,,,,
50.8,-0.00069,-173.15,,,,,,,
50.82,-0.00071,-175.72,,,,,,,
50.82,-0.00072,-176.21,,,,,,,
50.85,-0.00074,-179.49,,,,,,,
50.87,-0.00077,-182.5,,,,,,,
50.89,-0.00079,-185.64,,,,,,,
50.92,-0.00082,-188.78,,,,,,,
50.94,-0.00084,-191.76,,,,,,,
50.95,-0.00087,-184.84,,,,,,,
50.95,-0.0009,-185.34,,,,,,,
50.95,-0.00094,-185.54,,,,,,,
50.96,-0.00097,-185.77,,,,,,,
50.96,-0.001,-186.07,,,,,,,
50.96,-0.00102,-186.62,,,,,,,
51.08,-0.00105,-190.88,,,,,,,
51.14,-0.00107,-193.08,,,,,,,
51.16,-0.0011,-186.18,,,,,,,
51.16,-0.00113,-186.04,,,,,,,
51.17,-0.00116,-186.14,,,,,,,
51.17,-0.0012,-186.31,,,,,,,
51.17,-0.00125,-186.42,,,,,,,
51.17,-0.0013,-186.48,,,,,,,
51.17,-0.00136,-186.58,,,,,,,
51.17,-0.00142,-186.56,,,,,,,
51.17,-0.00148,-186.58,,,,,,,
51.17,-0.00153,-186.69,,,,,,,
51.17,-0.00158,-186.83,,,,,,,
51.17,-0.00162,-186.99,,,,,,,
51.17,-0.00166,-187.07,,,,,,,
51.18,-0.00169,-187.06,,,,,,,
51.18,-0.00166,-187.35,,,,,,,
51.18,-0.00163,-187.4,,,,,,,
51.23,-0.00161,-179.08,,,,,,,
51.24,-0.00158,-174.59,,,,,,,
51.25,-0.00156,-170.27,,,,,,,
51.26,-0.00153,-165.95,,,,,,,
51.27,-0.0015,-162.18,,,,,,,
51.28,-0.00148,-158.13,,,,,,,
51.29,-0.00145,-154.4,,,,,,,
51.31,-0.00143,-150.56,,,,,,,
51.32,-0.0014,-147.17,,,,,,,
51.33,-0.00137,-143.51,,,,,,,
51.35,-0.00135,-140.28,,,,,,,
51.38,-0.00132,-137.24,,,,,,,
51.47,-0.00135,-141.76,,,,,,,
51.49,-0.00137,-145.11,,,,,,,
51.51,-0.0014,-148.62,,,,,,,
51.53,-0.00143,-152.0,,,,,,,
51.55,-0.00145,-155.18,,,,,,,
51.57,-0.00148,-158.71,,,,,,,
51.59,-0.0015,-162.58,,,,,,,
51.61,-0.00153,-166.04,,,,,,,
51.63,-0.00156,-168.89,,,,,,,
51.66,-0.00158,-172.22,,,,,,,
51.68,-0.00161,-175.34,,,,,,,
51.7,-0.00163,-178.47,,,,,,,
51.73,-0.00166,-181.58,,,,,,,
51.75,-0.00168,-184.68,,,,,,,
51.78,-0.00171,-187.51,,,,,,,
51.81,-0.00173,-190.27,,,,,,,
51.82,-0.00175,-191.78,,,,,,,
51.83,-0.00176,-193.13,,,,,,,
51.86,-0.00179,-196.39,,,,,,,
51.91,-0.00181,-194.63,,,,,,,
51.91,-0.00186,-194.87,,,,,,,
51.92,-0.00189,-195.14,,,,,,,
51.92,-0.00193,-195.3,,,,,,,
51.92,-0.00197,-195.36,,,,,,,
51.92,-0.00202,-195.49,,,,,,,
51.92,-0.00207,-195.57,,,,,,,
51.92,-0.00212,-195.7,,,,,,,
51.92,-0.00217,-195.87,,,,,,,
51.92,-0.00222,-196.01,,,,,,,
51.92,-0.00225,-196.15,,,,,,,
51.92,-0.00228,-196.27,,,,,,,
51.93,-0.00231,-196.5,,,,,,,
51.93,-0.00229,-197.14,,,,,,,
51.94,-0.00226,-197.26,,,,,,,
51.94,-0.00229,-197.35,,,,,,,
51.99,-0.00226,-189.03,,,,,,,
52.01,-0.00223,-184.61,,,,,,,
52.02,-0.00221,-180.08,,,,,,,
52.04,-0.00218,-175.48,,,,,,,
52.06,-0.00216,-171.24,,,,,,,
52.07,-0.00213,-167.64,,,,,,,
52.1,-0.00211,-163.95,,,,,,,
52.24,-0.00213,-166.94,,,,,,,
52.26,-0.00216,-170.39,,,,,,,
52.28,-0.00218,-173.83,,,,,,,
52.3,-0.00221,-177.18,,,,,,,
52.33,-0.00223,-180.53,,,,,,,
52.35,-0.00226,-183.68,,,,,,,
52.37,-0.00229,-187.06,,,,,,,
52.39,-0.00231,-190.44,,,,,,,
52.41,-0.00234,-193.59,,,,,,,
52.44,-0.00236,-196.77,,,,,,,
52.46,-0.00239,-199.94,,,,,,,
52.49,-0.00241,-202.77,,,,,,,
52.5,-0.00245,-194.39,,,,,,,
52.51,-0.00248,-194.32,,,,,,,
52.51,-0.0025,-194.61,,,,,,,
52.51,-0.00253,-194.82,,,,,,,
52.51,-0.00257,-194.85,,,,,,,
52.51,-0.00261,-194.99,,,,,,,
52.51,-0.00265,-195.05,,,,,,,
52.51,-0.00269,-195.1,,,,,,,
52.51,-0.00273,-195.27,,,,,,,
52.51,-0.00276,-195.46,,,,,,,
52.52,-0.00279,-195.65,,,,,,,
52.52,-0.00283,-195.78,,,,,,,
52.53,-0.0028,-196.68,,,,,,,
52.61,-0.00278,-185.58,,,,,,,
52.63,-0.00275,-181.37,,,,,,,
52.65,-0.00273,-177.29,,,,,,,
52.68,-0.0027,-173.07,,,,,,,
52.82,-0.00273,-174.88,,,,,,,
52.82,-0.00273,-174.98,,,,,,,
52.84,-0.00275,-177.9,,,,,,,
52.87,-0.00278,-181.47,,,,,,,
52.89,-0.0028,-184.91,,,,,,,
52.91,-0.00283,-187.94,,,,,,,
52.94,-0.00285,-191.12,,,,,,,
52.96,-0.00288,-194.07,,,,,,,
52.99,-0.0029,-196.4,,,,,,,
53.12,-0.00288,-187.57,,,,,,,
53.15,-0.00285,-182.93,,,,,,,
53.17,-0.00283,-178.6,,,,,,,
53.19,-0.0028,-174.61,,,,,,,
53.21,-0.00278,-170.58,,,,,,,
53.24,-0.00275,-166.47,,,,,,,
53.26,-0.00273,-162.16,,,,,,,
53.29,-0.0027,-157.57,,,,,,,
53.31,-0.00267,-153.35,,,,,,,
53.34,-0.00265,-149.36,,,,,,,
53.36,-0.00262,-145.16,,,,,,,
53.39,-0.0026,-140.89,,,,,,,
53.42,-0.00257,-136.95,,,,,,,
53.44,-0.00255,-133.28,,,,,,,
53.47,-0.00252,-129.67,,,,,,,
53.49,-0.0025,-125.73,,,,,,,
53.52,-0.00247,-121.8,,,,,,,
53.55,-0.00244,-117.63,,,,,,,
53.59,-0.00242,-112.87,,,,,,,
53.61,-0.00239,-109.11,,,,,,,
53.64,-0.00237,-105.21,,,,,,,
53.67,-0.00234,-101.33,,,,,,,
53.69,-0.00232,-97.46,,,,,,,
53.72,-0.00229,-93.88,,,,,,,
53.75,-0.00227,-90.02,,,,,,,
53.77,-0.00224,-86.34,,,,,,,
53.8,-0.00221,-82.71,,,,,,,
53.82,-0.00219,-79.71,,,,,,,
53.82,-0.00219,-79.12,,,,,,,
53.85,-0.00216,-75.74,,,,,,,
53.88,-0.00214,-71.97,,,,,,,
53.91,-0.00211,-68.07,,,,,,,
53.93,-0.00209,-64.55,,,,,,,
53.96,-0.00206,-60.77,,,,,,,
53.99,-0.00204,-56.53,,,,,,,
54.02,-0.00201,-52.26,,,,,,,
54.05,-0.00199,-48.3,,,,,,,
54.08,-0.00196,-44.21,,,,,,,
54.11,-0.00194,-40.47,,,,,,,
54.14,-0.00191,-36.53,,,,,,,
54.16,-0.00188,-32.49,,,,,,,
54.19,-0.00186,-28.33,,,,,,,
54.22,-0.00183,-24.61,,,,,,,
54.25,-0.00181,-20.95,,,,,,,
54.27,-0.00178,-17.68,,,,,,,
54.3,-0.00176,-13.86,,,,,,,
54.32,-0.00173,-10.25,,,,,,,
54.35,-0.00171,-6.57,,,,,,,
54.38,-0.00168,-3.13,,,,,,,
54.4,-0.00166,0.62,,,,,,,
54.43,-0.00163,4.27,,,,,,,
54.46,-0.0016,8.0,,,,,,,
54.48,-0.00158,11.19,,,,,,,
54.51,-0.00155,14.83,,,,,,,
54.54,-0.00153,18.24,,,,,,,
54.57,-0.0015,21.71,,,,,,,
54.6,-0.00148,25.88,,,,,,,
54.63,-0.00145,29.11,,,,,,,
54.68,-0.00143,32.12,,,,,,,
54.72,-0.0014,35.26,,,,,,,
54.76,-0.00138,38.39,,,,,,,
54.79,-0.00135,41.53,,,,,,,
54.82,-0.00133,44.51,,,,,,,
54.82,-0.00132,44.78,,,,,,,
54.85,-0.0013,48.97,,,,,,,
54.87,-0.00127,52.16,,,,,,,
54.89,-0.00125,55.57,,,,,,,
54.92,-0.00122,59.09,,,,,,,
54.95,-0.0012,63.04,,,,,,,
54.98,-0.00117,66.71,,,,,,,
55.01,-0.00114,70.06,,,,,,,
55.04,-0.00112,73.79,,,,,,,
55.07,-0.00109,76.55,,,,,,,
55.1,-0.00107,79.66,,,,,,,
55.13,-0.00104,82.98,,,,,,,
55.16,-0.00102,86.34,,,,,,,
55.2,-0.00099,90.13,,,,,,,
55.23,-0.00097,93.48,,,,,,,
55.26,-0.00094,97.29,,,,,,,
55.29,-0.00092,100.58,,,,,,,
55.31,-0.00089,104.01,,,,,,,
55.33,-0.00086,107.56,,,,,,,
55.35,-0.00084,111.24,,,,,,,
55.37,-0.00081,114.81,,,,,,,
55.38,-0.00079,118.53,,,,,,,
55.4,-0.00076,121.72,,,,,,,
55.41,-0.00073,124.95,,,,,,,
55.43,-0.00071,128.2,,,,,,,
55.45,-0.00068,131.32,,,,,,,
55.46,-0.00066,134.73,,,,,,,
55.48,-0.00063,137.8,,,,,,,
55.5,-0.00061,140.75,,,,,,,
55.51,-0.00058,143.68,,,,,,,
55.53,-0.00055,146.21,,,,,,,
55.55,-0.00053,148.46,,,,,,,
55.57,-0.0005,151.07,,,,,,,
55.59,-0.00048,152.99,,,,,,,
55.6,-0.00045,154.48,,,,,,,
55.61,-0.00043,155.67,,,,,,,
55.63,-0.0004,156.9,,,,,,,
55.65,-0.00037,157.89,,,,,,,
55.66,-0.00035,158.99,,,,,,,
55.68,-0.00032,159.96,,,,,,,
55.71,-0.0003,160.97,,,,,,,
55.74,-0.00027,161.95,,,,,,,
55.78,-0.00025,163.2,,,,,,,
55.82,-0.00022,164.7,,,,,,,
55.82,-0.00022,164.81,,,,,,,
55.86,-0.0002,166.83,,,,,,,
55.89,-0.00017,168.76,,,,,,,
103.95,-0.00012,185.46,,,,,,,
103.99,-9e-05,187.55,,,,,,,
104.02,-6e-05,189.54,,,,,,,
104.04,-4e-05,185.47,,,,,,,
104.04,0.0,185.58,,,,,,,
104.04,3e-05,185.73,,,,,,,
104.04,6e-05,185.81,,,,,,,
104.04,0.0001,185.86,,,,,,,
104.04,0.00014,185.96,,,,,,,
104.05,0.00018,186.03,,,,,,,
104.05,0.00022,186.08,,,,,,,
104.05,0.00026,186.17,,,,,,,
104.05,0.0003,186.25,,,,,,,
104.05,0.00033,186.34,,,,,,,
104.05,0.00037,186.47,,,,,,,
104.06,0.00034,186.96,,,,,,,
104.12,0.00031,175.26,,,,,,,
104.14,0.00029,171.1,,,,,,,
104.15,0.00026,166.37,,,,,,,
104.17,0.00024,162.48,,,,,,,
104.18,0.00021,158.43,,,,,,,
104.2,0.00018,154.75,,,,,,,
104.23,0.00016,151.02,,,,,,,
104.33,0.00018,155.75,,,,,,,
104.36,0.00021,159.17,,,,,,,
104.38,0.00024,162.8,,,,,,,
104.4,0.00026,166.47,,,,,,,
104.42,0.00029,169.82,,,,,,,
104.43,0.00031,173.05,,,,,,,
104.45,0.00034,175.96,,,,,,,
104.47,0.00036,178.54,,,,,,,
104.49,0.00039,181.24,,,,,,,
104.51,0.00042,184.0,,,,,,,
104.53,0.00044,186.74,,,,,,,
104.56,0.00047,189.62,,,,,,,
104.58,0.00049,192.14,,,,,,,
104.61,0.00052,194.58,,,,,,,
104.63,0.00054,196.78,,,,,,,
104.66,0.00057,194.01,,,,,,,
104.68,0.0006,196.04,,,,,,,
104.7,0.00062,197.9,,,,,,,
104.72,0.00065,196.08,,,,,,,
104.77,0.00067,199.36,,,,,,,
104.78,0.00071,195.94,,,,,,,
104.79,0.00074,196.14,,,,,,,
104.79,0.00077,196.32,,,,,,,
104.79,0.0008,196.62,,,,,,,
104.81,0.00082,198.05,,,,,,,
104.82,0.00082,198.38,,,,,,,
104.89,0.00085,198.34,,,,,,,
104.97,0.00087,199.69,,,,,,,
105.01,0.0009,202.53,,,,,,,
105.04,0.00092,204.98,,,,,,,
105.05,0.00095,201.31,,,,,,,
105.05,0.00099,201.64,,,,,,,
105.05,0.00102,201.79,,,,,,,
105.05,0.00105,201.86,,,,,,,
105.05,0.00109,201.93,,,,,,,
105.06,0.00113,201.98,,,,,,,
105.06,0.00117,202.08,,,,,,,
105.06,0.0012,202.23,,,,,,,
105.06,0.00124,202.36,,,,,,,
105.06,0.00126,202.48,,,,,,,
105.06,0.0013,202.65,,,,,,,
105.07,0.00128,203.4,,,,,,,
105.08,0.0013,203.21,,,,,,,
105.13,0.00128,196.35,,,,,,,
105.15,0.00125,191.84,,,,,,,
105.17,0.00123,187.33,,,,,,,
105.19,0.0012,183.2,,,,,,,
105.23,0.00118,178.86,,,,,,,
105.34,0.0012,181.23,,,,,,,
105.36,0.00123,184.5,,,,,,,
105.38,0.00125,187.87,,,,,,,
105.41,0.00128,191.08,,,,,,,
105.43,0.0013,194.37,,,,,,,
105.45,0.00133,197.62,,,,,,,
105.47,0.00135,200.73,,,,,,,
105.49,0.00138,203.56,,,,,,,
105.51,0.00141,206.55,,,,,,,
105.53,0.00143,209.35,,,,,,,
105.56,0.00146,212.03,,,,,,,
105.57,0.00149,207.71,,,,,,,
105.57,0.00152,208.07,,,,,,,
105.57,0.00156,208.29,,,,,,,
105.57,0.00159,208.36,,,,,,,
105.58,0.00162,208.44,,,,,,,
105.58,0.00165,208.56,,,,,,,
105.58,0.00168,208.7,,,,,,,
105.58,0.00172,208.92,,,,,,,
105.58,0.00175,209.11,,,,,,,
105.67,0.00173,203.16,,,,,,,
105.71,0.0017,198.09,,,,,,,
105.82,0.00169,195.23,,,,,,,
105.86,0.00173,199.3,,,,,,,
105.88,0.00175,202.38,,,,,,,
105.91,0.00178,205.31,,,,,,,
105.93,0.0018,208.35,,,,,,,
105.95,0.00183,211.47,,,,,,,
105.97,0.00185,214.24,,,,,,,
105.98,0.00188,205.31,,,,,,,
105.98,0.00192,205.09,,,,,,,
105.98,0.00196,205.4,,,,,,,
105.98,0.00201,205.68,,,,,,,
105.98,0.00208,205.75,,,,,,,
105.99,0.00215,205.82,,,,,,,
105.99,0.00222,206.0,,,,,,,
105.99,0.0023,206.04,,,,,,,
105.99,0.00238,206.18,,,,,,,
105.99,0.00245,206.37,,,,,,,
105.99,0.00251,206.51,,,,,,,
105.99,0.00256,206.69,,,,,,,
105.99,0.0026,206.82,,,,,,,
105.99,0.00262,206.85,,,,,,,
106.0,0.00258,207.44,,,,,,,
106.0,0.00254,207.53,,,,,,,
106.0,0.00252,207.46,,,,,,,
106.01,0.00254,206.7,,,,,,,
106.04,0.00251,197.59,,,,,,,
106.05,0.00249,193.68,,,,,,,
106.06,0.00246,188.45,,,,,,,
106.07,0.00243,183.22,,,,,,,
106.07,0.00241,179.24,,,,,,,
106.08,0.00238,175.23,,,,,,,
106.09,0.00235,171.32,,,,,,,
106.09,0.00233,167.43,,,,,,,
106.1,0.0023,163.03,,,,,,,
106.11,0.00227,159.57,,,,,,,
106.12,0.00225,156.26,,,,,,,
106.12,0.00222,152.49,,,,,,,
106.13,0.00219,148.85,,,,,,,
106.14,0.00217,145.09,,,,,,,
106.15,0.00214,141.58,,,,,,,
106.16,0.00212,138.55,,,,,,,
106.18,0.00209,135.87,,,,,,,
106.28,0.00212,141.7,,,,,,,
106.3,0.00214,145.71,,,,,,,
106.31,0.00217,149.25,,,,,,,
106.33,0.0022,152.73,,,,,,,
106.34,0.00222,155.96,,,,,,,
106.36,0.00225,159.28,,,,,,,
106.37,0.00227,162.29,,,,,,,
106.39,0.0023,165.72,,,,,,,
106.41,0.00232,168.64,,,,,,,
106.43,0.00235,171.97,,,,,,,
106.45,0.00237,174.84,,,,,,,
106.47,0.0024,177.67,,,,,,,
106.5,0.00243,181.03,,,,,,,
106.53,0.00245,183.9,,,,,,,
106.56,0.00248,186.73,,,,,,,
106.59,0.0025,189.47,,,,,,,
106.61,0.00253,192.05,,,,,,,
106.64,0.00255,194.72,,,,,,,
106.67,0.00258,197.6,,,,,,,
106.7,0.0026,200.87,,,,,,,
106.73,0.00263,203.84,,,,,,,
106.75,0.00266,206.46,,,,,,,
106.78,0.00268,209.1,,,,,,,
106.8,0.00271,212.01,,,,,,,
106.82,0.00272,213.53,,,,,,,
106.83,0.00273,214.71,,,,,,,
106.86,0.00276,217.54,,,,,,,
106.89,0.00278,211.22,,,,,,,
106.92,0.00281,215.33,,,,,,,
106.94,0.00283,217.72,,,,,,,
106.95,0.00286,211.72,,,,,,,
106.98,0.00289,214.86,,,,,,,
107.0,0.00291,217.13,,,,,,,
107.15,0.00289,205.13,,,,,,,
107.18,0.00286,200.65,,,,,,,
107.2,0.00284,195.93,,,,,,,
107.22,0.00281,191.73,,,,,,,
107.24,0.00278,187.39,,,,,,,
107.26,0.00276,183.37,,,,,,,
107.28,0.00273,179.26,,,,,,,
107.3,0.00271,175.23,,,,,,,
107.33,0.00268,171.02,,,,,,,
107.35,0.00266,166.93,,,,,,,
107.38,0.00263,162.71,,,,,,,
107.41,0.0026,158.4,,,,,,,
107.44,0.00258,154.07,,,,,,,
107.46,0.00255,149.87,,,,,,,
107.5,0.00253,145.43,,,,,,,
107.52,0.0025,141.05,,,,,,,
107.55,0.00248,136.85,,,,,,,
107.58,0.00245,132.69,,,,,,,
107.61,0.00243,128.37,,,,,,,
107.64,0.0024,124.12,,,,,,,
107.66,0.00238,120.35,,,,,,,
107.69,0.00235,116.78,,,,,,,
107.72,0.00232,112.2,,,,,,,
107.74,0.0023,108.43,,,,,,,
107.77,0.00227,104.7,,,,,,,
107.8,0.00225,100.68,,,,,,,
107.82,0.00223,97.43,,,,,,,
107.83,0.00222,96.46,,,,,,,
107.85,0.0022,92.76,,,,,,,
107.88,0.00217,89.17,,,,,,,
107.9,0.00215,85.86,,,,,,,
107.93,0.00212,82.32,,,,,,,
107.95,0.00209,78.81,,,,,,,
107.98,0.00207,75.63,,,,,,,
108.01,0.00204,71.86,,,,,,,
108.03,0.00202,68.23,,,,,,,
108.06,0.00199,64.78,,,,,,,
108.09,0.00197,61.21,,,,,,,
108.12,0.00194,57.64,,,,,,,
108.15,0.00192,54.0,,,,,,,
108.17,0.00189,50.29,,,,,,,
108.2,0.00187,46.92,,,,,,,
108.23,0.00184,43.38,,,,,,,
108.26,0.00181,39.3,,,,,,,
108.29,0.00179,35.69,,,,,,,
108.32,0.00176,32.11,,,,,,,
108.34,0.00174,28.52,,,,,,,
108.37,0.00171,24.81,,,,,,,
108.4,0.00169,20.52,,,,,,,
108.43,0.00166,16.85,,,,,,,
108.46,0.00164,13.25,,,,,,,
108.48,0.00161,9.75,,,,,,,
108.51,0.00159,6.45,,,,,,,
108.53,0.00156,3.22,,,,,,,
108.56,0.00154,-0.17,,,,,,,
108.58,0.00151,-3.2,,,,,,,
108.61,0.00148,-6.29,,,,,,,
108.63,0.00146,-9.8,,,,,,,
108.67,0.00143,-13.28,,,,,,,
108.69,0.00141,-16.48,,,,,,,
108.72,0.00138,-19.16,,,,,,,
108.76,0.00136,-21.67,,,,,,,
108.82,0.00134,-21.96,,,,,,,
108.87,0.00133,-22.61,,,,,,,
108.92,0.00131,-26.4,,,,,,,
108.96,0.00128,-30.08,,,,,,,
109.0,0.00126,-33.27,,,,,,,
109.03,0.00123,-36.43,,,,,,,
109.06,0.00121,-39.81,,,,,,,
109.09,0.00118,-43.28,,,,,,,
109.12,0.00116,-47.35,,,,,,,
109.14,0.00113,-51.16,,,,,,,
109.15,0.0011,-55.34,,,,,,,
109.17,0.00108,-59.04,,,,,,,
109.18,0.00105,-62.79,,,,,,,
109.19,0.00103,-66.65,,,,,,,
109.21,0.001,-70.41,,,,,,,
109.22,0.00097,-74.15,,,,,,,
109.23,0.00095,-77.65,,,,,,,
109.24,0.00092,-81.02,,,,,,,
109.26,0.00089,-84.83,,,,,,,
109.27,0.00087,-88.11,,,,,,,
109.29,0.00084,-91.45,,,,,,,
109.3,0.00082,-94.81,,,,,,,
109.32,0.00079,-97.89,,,,,,,
109.33,0.00076,-100.93,,,,,,,
109.35,0.00074,-104.04,,,,,,,
109.37,0.00071,-106.89,,,,,,,
109.39,0.00069,-109.95,,,,,,,
109.42,0.00066,-113.09,,,,,,,
109.44,0.00064,-116.38,,,,,,,
109.47,0.00061,-119.5,,,,,,,
109.49,0.00059,-122.19,,,,,,,
109.52,0.00056,-125.07,,,,,,,
109.54,0.00054,-128.0,,,,,,,
109.57,0.00051,-130.63,,,,,,,
109.59,0.00048,-133.46,,,,,,,
109.62,0.00046,-136.46,,,,,,,
109.65,0.00043,-139.48,,,,,,,
109.67,0.00041,-142.23,,,,,,,
109.7,0.00038,-144.86,,,,,,,
109.72,0.00036,-147.39,,,,,,,
109.75,0.00033,-149.98,,,,,,,
109.77,0.00031,-152.49,,,,,,,
109.79,0.00028,-154.73,,,,,,,
109.82,0.00026,-156.84,,,,,,,
109.82,0.00025,-157.03,,,,,,,
109.84,0.00023,-159.24,,,,,,,
109.87,0.0002,-161.75,,,,,,,
109.9,0.00018,-164.11,,,,,,,
109.92,0.00015,-166.29,,,,,,,
109.95,0.00013,-168.44,,,,,,,
109.98,0.0001,-170.53,,,,,,,
110.0,8e-05,-172.44,,,,,,,
110.02,5e-05,-173.9,,,,,,,
110.05,2e-05,-175.16,,,,,,,
110.07,-0.0,-176.45,,,,,,,
110.08,-3e-05,-176.62,,,,,,,
110.09,-5e-05,-176.88,,,,,,,
110.09,-8e-05,-177.2,,,,,,,
110.11,-0.0001,-177.78,,,,,,,
110.12,-0.00013,-178.16,,,,,,,
110.15,-0.00015,-178.56,,,,,,,
110.2,-0.00018,-178.07,,,,,,,
110.27,-0.0002,-178.18,,,,,,,
110.31,-0.00023,-179.85,,,,,,,
110.35,-0.00025,-182.15,,,,,,,
110.38,-0.00028,-184.7,,,,,,,
110.41,-0.0003,-186.96,,,,,,,
110.42,-0.00033,-187.32,,,,,,,
110.43,-0.00036,-187.55,,,,,,,
110.43,-0.00039,-187.62,,,,,,,
110.43,-0.00041,-187.58,,,,,,,
110.44,-0.00044,-187.5,,,,,,,
110.44,-0.00047,-187.69,,,,,,,
110.45,-0.0005,-187.91,,,,,,,
110.47,-0.00052,-188.51,,,,,,,
110.58,-0.00055,-184.71,,,,,,,
110.67,-0.00057,-185.0,,,,,,,
110.71,-0.0006,-187.62,,,,,,,
110.74,-0.00062,-190.02,,,,,,,
110.76,-0.00065,-192.5,,,,,,,
110.78,-0.00067,-195.02,,,,,,,
110.81,-0.0007,-189.91,,,,,,,
110.81,-0.00073,-190.34,,,,,,,
110.81,-0.00076,-190.63,,,,,,,
110.82,-0.0008,-190.91,,,,,,,
110.82,-0.00081,-191.16,,,,,,,
110.82,-0.00082,-191.33,,,,,,,
110.86,-0.00085,-194.14,,,,,,,
110.89,-0.00087,-195.14,,,,,,,
110.93,-0.0009,-195.4,,,,,,,
110.99,-0.00093,-196.14,,,,,,,
111.04,-0.00095,-197.7,,,,,,,
111.06,-0.00098,-195.82,,,,,,,
111.07,-0.00101,-195.93,,,,,,,
111.07,-0.00105,-196.04,,,,,,,
111.07,-0.00111,-196.23,,,,,,,
111.07,-0.00113,-196.27,,,,,,,
111.07,-0.00116,-196.31,,,,,,,
111.07,-0.0012,-196.43,,,,,,,
111.08,-0.00123,-196.61,,,,,,,
111.17,-0.00121,-189.49,,,,,,,
111.21,-0.00118,-184.82,,,,,,,
111.34,-0.00121,-185.54,,,,,,,
111.36,-0.00124,-188.44,,,,,,,
111.39,-0.00126,-191.52,,,,,,,
111.41,-0.00129,-194.26,,,,,,,
111.43,-0.00131,-197.4,,,,,,,
111.45,-0.00134,-200.07,,,,,,,
111.48,-0.00136,-202.93,,,,,,,
111.5,-0.00139,-205.74,,,,,,,
111.52,-0.00142,-201.53,,,,,,,
111.52,-0.00144,-202.49,,,,,,,
111.55,-0.00147,-205.48,,,,,,,
111.56,-0.0015,-201.87,,,,,,,
111.56,-0.00154,-202.21,,,,,,,
111.56,-0.00156,-202.31,,,,,,,
111.56,-0.0016,-202.36,,,,,,,
111.56,-0.00163,-202.48,,,,,,,
111.56,-0.00167,-202.56,,,,,,,
111.56,-0.00171,-202.65,,,,,,,
111.57,-0.00174,-202.77,,,,,,,
111.57,-0.00177,-202.88,,,,,,,
111.57,-0.0018,-202.95,,,,,,,
111.57,-0.00184,-203.11,,,,,,,
111.58,-0.00181,-203.74,,,,,,,
111.65,-0.00179,-191.99,,,,,,,
111.67,-0.00176,-187.54,,,,,,,
111.68,-0.00174,-183.31,,,,,,,
111.7,-0.00171,-179.37,,,,,,,
111.73,-0.00169,-175.37,,,,,,,
111.82,-0.00168,-173.51,,,,,,,
111.86,-0.00171,-177.77,,,,,,,
111.88,-0.00174,-181.53,,,,,,,
111.91,-0.00176,-185.11,,,,,,,
111.93,-0.00179,-188.25,,,,,,,
111.95,-0.00182,-191.41,,,,,,,
111.96,-0.00184,-194.39,,,,,,,
111.98,-0.00187,-197.23,,,,,,,
112.0,-0.00189,-200.08,,,,,,,
112.03,-0.00192,-202.91,,,,,,,
112.05,-0.00194,-205.49,,,,,,,
112.07,-0.00197,-208.15,,,,,,,
112.1,-0.002,-210.97,,,,,,,
112.12,-0.00202,-208.05,,,,,,,
112.18,-0.00205,-211.93,,,,,,,
112.2,-0.00207,-208.75,,,,,,,
112.2,-0.00211,-209.15,,,,,,,
112.2,-0.00216,-209.39,,,,,,,
112.2,-0.00219,-209.51,,,,,,,
112.2,-0.00222,-209.71,,,,,,,
112.21,-0.00226,-209.85,,,,,,,
112.21,-0.0023,-209.91,,,,,,,
112.21,-0.00233,-209.96,,,,,,,
112.21,-0.00236,-210.05,,,,,,,
112.21,-0.00239,-210.24,,,,,,,
112.21,-0.00242,-210.57,,,,,,,
112.3,-0.0024,-202.91,,,,,,,
112.32,-0.00237,-197.35,,,,,,,
112.35,-0.00235,-192.91,,,,,,,
112.39,-0.00232,-188.44,,,,,,,
112.49,-0.00235,-190.95,,,,,,,
112.52,-0.00237,-194.19,,,,,,,
112.54,-0.0024,-197.08,,,,,,,
112.56,-0.00243,-200.07,,,,,,,
112.58,-0.00245,-203.15,,,,,,,
112.6,-0.00248,-206.25,,,,,,,
112.62,-0.0025,-209.23,,,,,,,
112.64,-0.00253,-212.25,,,,,,,
112.67,-0.00255,-215.15,,,,,,,
112.69,-0.00258,-217.78,,,,,,,
112.7,-0.00261,-212.54,,,,,,,
112.71,-0.00264,-213.09,,,,,,,
112.71,-0.00267,-213.39,,,,,,,
112.71,-0.0027,-213.77,,,,,,,
112.74,-0.00273,-216.36,,,,,,,
112.76,-0.00275,-216.99,,,,,,,
112.77,-0.00278,-217.16,,,,,,,
112.82,-0.00281,-216.8,,,,,,,
112.83,-0.00281,-216.53,,,,,,,
112.93,-0.00283,-216.88,,,,,,,
112.97,-0.00286,-219.32,,,,,,,
113.01,-0.00288,-221.46,,,,,,,
113.02,-0.00292,-213.06,,,,,,,
113.02,-0.00295,-213.08,,,,,,,
113.02,-0.00298,-213.21,,,,,,,
113.02,-0.00303,-213.3,,,,,,,
113.02,-0.00309,-213.24,,,,,,,
113.03,-0.00316,-213.28,,,,,,,
113.03,-0.00323,-213.37,,,,,,,
113.03,-0.0033,-213.31,,,,,,,
113.03,-0.00337,-213.29,,,,,,,
113.03,-0.00344,-213.32,,,,,,,
113.03,-0.00349,-213.37,,,,,,,
113.03,-0.00354,-213.46,,,,,,,
113.03,-0.00357,-213.46,,,,,,,
113.03,-0.00361,-213.4,,,,,,,
113.04,-0.00358,-213.33,,,,,,,
113.04,-0.00354,-213.22,,,,,,,
113.04,-0.00352,-212.99,,,,,,,
113.07,-0.00349,-200.9,,,,,,,
113.08,-0.00346,-195.7,,,,,,,
113.09,-0.00343,-190.62,,,,,,,
113.09,-0.00341,-186.07,,,,,,,
113.1,-0.00338,-181.97,,,,,,,
113.1,-0.00336,-177.83,,,,,,,
113.11,-0.00333,-172.78,,,,,,,
113.11,-0.0033,-168.44,,,,,,,
113.12,-0.00327,-164.2,,,,,,,
113.12,-0.00324,-159.89,,,,,,,
113.13,-0.00322,-155.69,,,,,,,
113.13,-0.00319,-151.48,,,,,,,
113.14,-0.00316,-147.29,,,,,,,
113.14,-0.00313,-143.22,,,,,,,
113.15,-0.0031,-139.19,,,,,,,
113.15,-0.00308,-135.2,,,,,,,
113.16,-0.00305,-131.43,,,,,,,
113.16,-0.00302,-127.79,,,,,,,
113.17,-0.003,-124.23,,,,,,,
113.17,-0.00297,-120.14,,,,,,,
113.18,-0.00294,-116.25,,,,,,,
113.19,-0.00291,-112.58,,,,,,,
113.19,-0.00289,-109.21,,,,,,,
113.2,-0.00286,-105.43,,,,,,,
113.21,-0.00283,-101.94,,,,,,,
113.21,-0.0028,-98.42,,,,,,,
113.22,-0.00278,-94.84,,,,,,,
113.23,-0.00275,-91.34,,,,,,,
113.24,-0.00273,-88.21,,,,,,,
113.26,-0.0027,-84.75,,,,,,,
113.28,-0.00267,-81.56,,,,,,,
113.3,-0.00265,-78.52,,,,,,,
113.38,-0.00262,-74.37,,,,,,,
113.44,-0.0026,-70.43,,,,,,,
113.47,-0.00257,-66.91,,,,,,,
113.5,-0.00255,-62.98,,,,,,,
113.54,-0.00252,-58.5,,,,,,,
113.56,-0.00249,-54.78,,,,,,,
113.59,-0.00247,-50.4,,,,,,,
113.62,-0.00244,-46.43,,,,,,,
113.64,-0.00242,-42.76,,,,,,,
113.67,-0.00239,-39.34,,,,,,,
113.69,-0.00237,-35.8,,,,,,,
113.71,-0.00234,-32.54,,,,,,,
113.74,-0.00232,-29.21,,,,,,,
113.76,-0.00229,-25.82,,,,,,,
113.79,-0.00227,-22.41,,,,,,,
113.81,-0.00224,-19.13,,,,,,,
113.82,-0.00224,-18.53,,,,,,,
113.84,-0.00221,-15.64,,,,,,,
113.87,-0.00219,-12.24,,,,,,,
113.9,-0.00216,-8.92,,,,,,,
113.92,-0.00214,-5.49,,,,,,,
113.95,-0.00211,-2.02,,,,,,,
113.98,-0.00209,1.3,,,,,,,
114.01,-0.00206,4.99,,,,,,,
114.04,-0.00204,8.45,,,,,,,
114.07,-0.00201,12.07,,,,,,,
114.09,-0.00199,15.61,,,,,,,
114.12,-0.00196,19.28,,,,,,,
114.15,-0.00193,22.68,,,,,,,
114.18,-0.00191,26.16,,,,,,,
114.21,-0.00188,29.24,,,,,,,
114.27,-0.00186,32.53,,,,,,,
114.31,-0.00183,35.93,,,,,,,
114.35,-0.00181,39.66,,,,,,,
114.38,-0.00178,43.15,,,,,,,
114.41,-0.00176,46.3,,,,,,,
114.43,-0.00173,50.54,,,,,,,
114.45,-0.00171,53.83,,,,,,,
114.47,-0.00168,57.13,,,,,,,
114.5,-0.00165,60.46,,,,,,,
114.52,-0.00163,63.88,,,,,,,
114.55,-0.0016,67.28,,,,,,,
114.58,-0.00158,70.27,,,,,,,
114.61,-0.00155,73.42,,,,,,,
114.64,-0.00153,76.57,,,,,,,
114.68,-0.0015,79.45,,,,,,,
114.71,-0.00148,82.53,,,,,,,
114.74,-0.00145,85.32,,,,,,,
114.77,-0.00143,88.23,,,,,,,
114.8,-0.0014,91.39,,,,,,,
114.82,-0.00138,93.48,,,,,,,
114.83,-0.00138,94.42,,,,,,,
114.86,-0.00135,97.44,,,,,,,
114.88,-0.00132,100.93,,,,,,,
114.9,-0.0013,104.39,,,,,,,
114.92,-0.00127,107.77,,,,,,,
114.94,-0.00125,111.2,,,,,,,
114.96,-0.00122,114.51,,,,,,,
114.97,-0.0012,117.85,,,,,,,
114.99,-0.00117,120.85,,,,,,,
115.0,-0.00114,124.06,,,,,,,
115.02,-0.00112,127.22,,,,,,,
115.04,-0.00109,130.2,,,,,,,
115.05,-0.00107,133.11,,,,,,,
115.07,-0.00104,136.0,,,,,,,
115.09,-0.00102,138.87,,,,,,,
115.11,-0.00099,141.57,,,,,,,
115.13,-0.00097,144.22,,,,,,,
115.15,-0.00094,146.76,,,,,,,
115.17,-0.00091,149.34,,,,,,,
115.2,-0.00089,151.86,,,,,,,
115.22,-0.00086,154.31,,,,,,,
115.25,-0.00084,156.67,,,,,,,
115.27,-0.00081,158.98,,,,,,,
115.3,-0.00079,161.23,,,,,,,
115.32,-0.00076,163.32,,,,,,,
115.35,-0.00073,165.45,,,,,,,
115.37,-0.00071,167.52,,,,,,,
115.39,-0.00068,169.06,,,,,,,
115.41,-0.00066,170.22,,,,,,,
115.43,-0.00063,171.3,,,,,,,
115.44,-0.00061,172.31,,,,,,,
115.46,-0.00058,172.97,,,,,,,
115.47,-0.00055,173.63,,,,,,,
115.49,-0.00053,174.26,,,,,,,
115.52,-0.0005,174.72,,,,,,,
115.56,-0.00048,175.12,,,,,,,
115.61,-0.00045,175.9,,,,,,,
115.65,-0.00043,177.2,,,,,,,
115.68,-0.0004,178.63,,,,,,,
115.71,-0.00037,180.79,,,,,,,
115.74,-0.00035,182.5,,,,,,,
115.76,-0.00032,184.15,,,,,,,
115.78,-0.0003,185.11,,,,,,,
115.79,-0.00027,183.54,,,,,,,
115.79,-0.00025,183.67,,,,,,,
115.8,-0.00022,183.92,,,,,,,
115.8,-0.00019,184.26,,,,,,,
115.82,-0.00018,185.25,,,,,,,
115.83,-0.00017,185.58,,,,,,,
115.86,-0.00014,186.07,,,,,,,
115.92,-0.00012,185.78,,,,,,,
224.07,-6e-05,184.53,,,,,,,
224.12,-3e-05,185.24,,,,,,,
224.16,-1e-05,186.52,,,,,,,
224.19,2e-05,188.47,,,,,,,
224.21,4e-05,189.93,,,,,,,
224.23,7e-05,190.03,,,,,,,
224.24,0.0001,190.3,,,,,,,
224.24,0.00013,190.61,,,,,,,
224.26,0.00016,191.77,,,,,,,
224.3,0.00018,192.85,,,,,,,
224.31,0.00021,193.05,,,,,,,
224.34,0.00023,193.31,,,,,,,
224.38,0.00026,193.1,,,,,,,
224.42,0.00028,193.44,,,,,,,
224.46,0.00031,194.47,,,,,,,
224.5,0.00033,195.89,,,,,,,
224.53,0.00036,197.78,,,,,,,
224.56,0.00039,199.77,,,,,,,
224.58,0.00041,196.16,,,,,,,
224.59,0.00044,196.59,,,,,,,
224.61,0.00047,198.5,,,,,,,
224.64,0.00049,200.76,,,,,,,
224.67,0.00052,202.33,,,,,,,
224.69,0.00055,198.92,,,,,,,
224.69,0.00058,199.12,,,,,,,
224.7,0.00063,199.37,,,,,,,
224.7,0.00066,199.36,,,,,,,
224.7,0.00069,199.44,,,,,,,
224.7,0.00073,199.52,,,,,,,
224.7,0.00077,199.57,,,,,,,
224.7,0.0008,199.62,,,,,,,
224.7,0.00084,199.63,,,,,,,
224.7,0.00086,199.69,,,,,,,
224.71,0.0009,199.84,,,,,,,
224.71,0.00088,200.07,,,,,,,
224.77,0.00085,189.21,,,,,,,
224.79,0.00083,184.65,,,,,,,
224.81,0.0008,180.41,,,,,,,
224.82,0.00078,177.02,,,,,,,
224.82,0.00078,176.51,,,,,,,
224.84,0.00075,172.44,,,,,,,
224.87,0.00073,168.7,,,,,,,
224.99,0.00075,172.32,,,,,,,
225.01,0.00078,175.43,,,,,,,
225.03,0.0008,179.03,,,,,,,
225.05,0.00083,182.06,,,,,,,
225.06,0.00085,184.79,,,,,,,
225.08,0.00088,187.45,,,,,,,
225.1,0.0009,190.3,,,,,,,
225.12,0.00093,193.05,,,,,,,
225.14,0.00096,195.53,,,,,,,
225.16,0.00098,198.02,,,,,,,
225.18,0.00101,200.58,,,,,,,
225.21,0.00103,203.14,,,,,,,
225.24,0.00106,205.53,,,,,,,
225.26,0.00108,207.64,,,,,,,
225.29,0.00111,209.67,,,,,,,
225.31,0.00114,204.96,,,,,,,
225.31,0.00117,205.27,,,,,,,
225.31,0.00121,205.39,,,,,,,
225.32,0.00124,205.57,,,,,,,
225.32,0.00127,205.79,,,,,,,
225.35,0.00129,207.35,,,,,,,
225.5,0.00132,204.96,,,,,,,
225.55,0.00134,207.25,,,,,,,
225.58,0.00137,209.98,,,,,,,
225.6,0.00139,212.45,,,,,,,
225.62,0.00142,214.85,,,,,,,
225.65,0.00145,214.74,,,,,,,
225.65,0.00148,215.1,,,,,,,
225.65,0.00152,215.25,,,,,,,
225.65,0.00155,215.45,,,,,,,
225.66,0.00159,215.59,,,,,,,
225.66,0.00161,215.8,,,,,,,
225.68,0.00164,216.64,,,,,,,
225.74,0.00166,215.32,,,,,,,
225.82,0.00167,212.17,,,,,,,
225.88,0.00169,212.3,,,,,,,
225.92,0.00171,214.59,,,,,,,
225.95,0.00174,217.48,,,,,,,
225.98,0.00176,220.23,,,,,,,
226.0,0.00179,222.84,,,,,,,
226.02,0.00183,215.27,,,,,,,
226.02,0.00188,215.28,,,,,,,
226.02,0.00192,215.55,,,,,,,
226.02,0.00198,215.71,,,,,,,
226.02,0.00204,215.71,,,,,,,
226.02,0.00211,215.84,,,,,,,
226.02,0.00219,215.94,,,,,,,
226.02,0.00227,216.01,,,,,,,
226.02,0.00234,216.15,,,,,,,
226.03,0.00241,216.29,,,,,,,
226.03,0.00246,216.43,,,,,,,
226.03,0.0025,216.59,,,,,,,
226.03,0.00254,216.64,,,,,,,
226.03,0.00256,216.93,,,,,,,
226.03,0.00252,217.15,,,,,,,
226.04,0.00249,217.25,,,,,,,
226.04,0.00246,217.18,,,,,,,
226.05,0.00249,216.39,,,,,,,
226.08,0.00247,207.25,,,,,,,
226.08,0.00244,202.32,,,,,,,
226.09,0.00241,197.43,,,,,,,
226.1,0.00239,192.87,,,,,,,
226.11,0.00236,188.24,,,,,,,
226.12,0.00233,184.2,,,,,,,
226.12,0.00231,180.19,,,,,,,
226.13,0.00228,176.15,,,,,,,
226.14,0.00225,172.31,,,,,,,
226.14,0.00223,168.66,,,,,,,
226.15,0.0022,164.72,,,,,,,
226.16,0.00217,160.94,,,,,,,
226.17,0.00215,157.57,,,,,,,
226.18,0.00212,154.05,,,,,,,
226.19,0.0021,150.69,,,,,,,
226.2,0.00207,147.34,,,,,,,
226.21,0.00204,144.07,,,,,,,
226.24,0.00202,141.26,,,,,,,
226.31,0.00205,147.15,,,,,,,
226.33,0.00207,150.99,,,,,,,
226.35,0.0021,155.02,,,,,,,
226.36,0.00212,158.68,,,,,,,
226.38,0.00215,162.25,,,,,,,
226.39,0.00217,165.9,,,,,,,
226.41,0.0022,169.39,,,,,,,
226.42,0.00223,172.79,,,,,,,
226.44,0.00225,175.97,,,,,,,
226.46,0.00228,179.32,,,,,,,
226.48,0.0023,182.58,,,,,,,
226.5,0.00233,185.87,,,,,,,
226.53,0.00235,189.03,,,,,,,
226.55,0.00238,192.06,,,,,,,
226.58,0.00241,195.19,,,,,,,
226.61,0.00243,198.11,,,,,,,
226.64,0.00246,201.31,,,,,,,
226.67,0.00248,203.93,,,,,,,
226.7,0.00251,206.63,,,,,,,
226.72,0.00253,209.51,,,,,,,
226.75,0.00256,212.23,,,,,,,
226.77,0.00258,214.83,,,,,,,
226.8,0.00261,217.41,,,,,,,
226.82,0.00263,219.51,,,,,,,
226.82,0.00264,220.01,,,,,,,
226.85,0.00266,222.36,,,,,,,
226.87,0.00269,224.77,,,,,,,
226.9,0.00271,227.12,,,,,,,
226.92,0.00274,221.13,,,,,,,
226.95,0.00276,221.59,,,,,,,
226.98,0.00279,224.51,,,,,,,
227.0,0.00281,227.02,,,,,,,
227.02,0.00284,226.44,,,,,,,
227.02,0.00287,226.66,,,,,,,
227.02,0.0029,226.88,,,,,,,
227.02,0.00293,227.15,,,,,,,
227.03,0.00296,227.2,,,,,,,
227.03,0.00298,227.7,,,,,,,
227.07,0.00301,228.87,,,,,,,
227.16,0.00298,218.87,,,,,,,
227.18,0.00296,213.68,,,,,,,
227.2,0.00293,208.41,,,,,,,
227.22,0.00291,203.9,,,,,,,
227.24,0.00288,199.49,,,,,,,
227.26,0.00286,194.89,,,,,,,
227.28,0.00283,190.6,,,,,,,
227.3,0.00281,186.19,,,,,,,
227.32,0.00278,182.19,,,,,,,
227.34,0.00275,177.95,,,,,,,
227.37,0.00273,173.62,,,,,,,
227.39,0.0027,169.39,,,,,,,
227.42,0.00268,165.28,,,,,,,
227.44,0.00265,161.18,,,,,,,
227.47,0.00263,157.42,,,,,,,
227.49,0.0026,153.29,,,,,,,
227.52,0.00258,149.58,,,,,,,
227.55,0.00255,145.73,,,,,,,
227.58,0.00252,141.51,,,,,,,
227.61,0.0025,137.52,,,,,,,
227.63,0.00247,133.81,,,,,,,
227.66,0.00245,129.77,,,,,,,
227.69,0.00242,125.85,,,,,,,
227.72,0.0024,121.99,,,,,,,
227.75,0.00237,118.05,,,,,,,
227.77,0.00235,114.23,,,,,,,
227.8,0.00232,110.7,,,,,,,
227.82,0.0023,107.68,,,,,,,
227.83,0.0023,106.9,,,,,,,
227.85,0.00227,103.35,,,,,,,
227.88,0.00224,99.87,,,,,,,
227.9,0.00222,96.14,,,,,,,
227.93,0.00219,92.65,,,,,,,
227.96,0.00217,88.91,,,,,,,
227.99,0.00214,85.39,,,,,,,
228.01,0.00212,81.87,,,,,,,
228.04,0.00209,78.19,,,,,,,
228.07,0.00207,74.63,,,,,,,
228.1,0.00204,71.0,,,,,,,
228.13,0.00202,67.19,,,,,,,
228.15,0.00199,63.4,,,,,,,
228.18,0.00197,59.67,,,,,,,
228.21,0.00194,55.62,,,,,,,
228.24,0.00191,51.59,,,,,,,
228.27,0.00189,47.83,,,,,,,
228.3,0.00186,43.92,,,,,,,
228.33,0.00184,40.08,,,,,,,
228.35,0.00181,36.42,,,,,,,
228.38,0.00179,32.64,,,,,,,
228.41,0.00176,28.72,,,,,,,
228.44,0.00174,24.73,,,,,,,
228.47,0.00171,20.7,,,,,,,
228.49,0.00169,16.81,,,,,,,
228.52,0.00166,13.07,,,,,,,
228.55,0.00163,9.31,,,,,,,
228.57,0.00161,5.66,,,,,,,
228.6,0.00158,1.72,,,,,,,
228.63,0.00156,-1.98,,,,,,,
228.66,0.00153,-5.91,,,,,,,
228.69,0.00151,-9.7,,,,,,,
228.72,0.00148,-13.29,,,,,,,
228.75,0.00146,-17.16,,,,,,,
228.77,0.00143,-20.58,,,,,,,
228.82,0.0014,-23.58,,,,,,,
228.82,0.0014,-23.72,,,,,,,
228.95,0.00138,-27.13,,,,,,,
228.99,0.00135,-31.19,,,,,,,
229.03,0.00133,-34.78,,,,,,,
229.06,0.0013,-38.55,,,,,,,
229.09,0.00128,-42.24,,,,,,,
229.12,0.00125,-46.15,,,,,,,
229.15,0.00123,-50.07,,,,,,,
229.17,0.0012,-54.3,,,,,,,
229.18,0.00118,-58.67,,,,,,,
229.19,0.00115,-62.21,,,,,,,
229.21,0.00113,-65.84,,,,,,,
229.22,0.0011,-69.39,,,,,,,
229.23,0.00107,-73.12,,,,,,,
229.24,0.00105,-76.68,,,,,,,
229.26,0.00102,-80.17,,,,,,,
229.27,0.001,-83.66,,,,,,,
229.28,0.00097,-86.9,,,,,,,
229.29,0.00094,-90.09,,,,,,,
229.31,0.00092,-93.32,,,,,,,
229.32,0.00089,-96.66,,,,,,,
229.34,0.00087,-99.53,,,,,,,
229.35,0.00084,-102.59,,,,,,,
229.37,0.00082,-105.7,,,,,,,
229.39,0.00079,-108.81,,,,,,,
229.41,0.00076,-111.75,,,,,,,
229.42,0.00074,-114.49,,,,,,,
229.45,0.00071,-117.47,,,,,,,
229.47,0.00069,-120.12,,,,,,,
229.49,0.00066,-122.57,,,,,,,
229.52,0.00064,-125.35,,,,,,,
229.54,0.00061,-128.11,,,,,,,
229.57,0.00059,-130.48,,,,,,,
229.59,0.00056,-132.89,,,,,,,
229.62,0.00054,-135.07,,,,,,,
229.64,0.00051,-137.17,,,,,,,
229.66,0.00048,-139.53,,,,,,,
229.69,0.00046,-141.85,,,,,,,
229.72,0.00043,-144.09,,,,,,,
229.75,0.00041,-146.38,,,,,,,
229.77,0.00038,-148.67,,,,,,,
229.8,0.00036,-150.8,,,,,,,
229.82,0.00034,-152.63,,,,,,,
229.82,0.00033,-152.99,,,,,,,
229.85,0.00031,-155.01,,,,,,,
229.87,0.00028,-156.99,,,,,,,
229.89,0.00026,-158.91,,,,,,,
229.92,0.00023,-160.87,,,,,,,
229.95,0.0002,-162.83,,,,,,,
229.97,0.00018,-164.76,,,,,,,
230.0,0.00015,-166.54,,,,,,,
230.02,0.00013,-168.52,,,,,,,
230.05,0.0001,-170.75,,,,,,,
230.08,8e-05,-173.12,,,,,,,
230.11,5e-05,-175.24,,,,,,,
230.13,3e-05,-177.12,,,,,,,
230.16,0.0,-179.02,,,,,,,
230.18,-3e-05,-180.82,,,,,,,
230.21,-5e-05,-182.72,,,,,,,
230.23,-8e-05,-184.4,,,,,,,
230.25,-0.0001,-185.9,,,,,,,
230.27,-0.00013,-186.69,,,,,,,
230.28,-0.00016,-186.5,,,,,,,
230.28,-0.00019,-186.69,,,,,,,
230.28,-0.00021,-186.89,,,,,,,
230.31,-0.00024,-187.71,,,,,,,
230.34,-0.00026,-187.73,,,,,,,
230.41,-0.00029,-186.21,,,,,,,
230.47,-0.00031,-186.29,,,,,,,
230.51,-0.00034,-187.76,,,,,,,
230.54,-0.00036,-189.53,,,,,,,
230.57,-0.00039,-191.57,,,,,,,
230.59,-0.00042,-193.6,,,,,,,
230.62,-0.00044,-193.98,,,,,,,
230.62,-0.00047,-194.4,,,,,,,
230.63,-0.0005,-194.68,,,,,,,
230.64,-0.00052,-195.88,,,,,,,
230.67,-0.00055,-197.2,,,,,,,
230.68,-0.00057,-197.56,,,,,,,
230.72,-0.0006,-198.43,,,,,,,
230.77,-0.00062,-199.16,,,,,,,
230.8,-0.00065,-199.8,,,,,,,
230.82,-0.00066,-200.45,,,,,,,
230.84,-0.00067,-201.12,,,,,,,
230.87,-0.0007,-202.53,,,,,,,
230.88,-0.00072,-201.94,,,,,,,
230.89,-0.00075,-201.53,,,,,,,
230.9,-0.00078,-201.83,,,,,,,
230.93,-0.0008,-203.57,,,,,,,
230.97,-0.00083,-204.81,,,,,,,
231.01,-0.00085,-206.22,,,,,,,
231.03,-0.00089,-203.39,,,,,,,
231.03,-0.00092,-203.51,,,,,,,
231.03,-0.00097,-203.6,,,,,,,
231.03,-0.00099,-203.64,,,,,,,
231.03,-0.00102,-203.65,,,,,,,
231.03,-0.00105,-203.69,,,,,,,
231.04,-0.00109,-203.82,,,,,,,
231.04,-0.00113,-203.93,,,,,,,
231.13,-0.0011,-193.35,,,,,,,
231.17,-0.00108,-188.38,,,,,,,
231.33,-0.0011,-189.42,,,,,,,
231.35,-0.00113,-192.33,,,,,,,
231.37,-0.00115,-195.08,,,,,,,
231.39,-0.00118,-197.98,,,,,,,
231.41,-0.0012,-200.65,,,,,,,
231.43,-0.00123,-203.4,,,,,,,
231.45,-0.00125,-206.07,,,,,,,
231.47,-0.00128,-208.89,,,,,,,
231.5,-0.00131,-211.61,,,,,,,
231.52,-0.00133,-214.01,,,,,,,
231.57,-0.00136,-211.84,,,,,,,
231.58,-0.00138,-213.23,,,,,,,
231.59,-0.00141,-213.57,,,,,,,
231.59,-0.00144,-213.89,,,,,,,
231.59,-0.00147,-214.14,,,,,,,
231.6,-0.0015,-214.55,,,,,,,
231.62,-0.00153,-216.52,,,,,,,
231.64,-0.00155,-217.17,,,,,,,
231.67,-0.00158,-217.66,,,,,,,
231.74,-0.0016,-216.88,,,,,,,
231.8,-0.00163,-217.6,,,,,,,
231.82,-0.00164,-218.3,,,,,,,
231.85,-0.00165,-219.84,,,,,,,
231.88,-0.00168,-215.52,,,,,,,
231.88,-0.00171,-216.01,,,,,,,
231.89,-0.00175,-216.26,,,,,,,
231.89,-0.00178,-216.36,,,,,,,
231.89,-0.0018,-216.72,,,,,,,
231.92,-0.00183,-218.83,,,,,,,
231.97,-0.00185,-219.43,,,,,,,
232.02,-0.00188,-219.33,,,,,,,
232.08,-0.00191,-220.37,,,,,,,
232.11,-0.00193,-221.74,,,,,,,
232.14,-0.00196,-223.82,,,,,,,
232.18,-0.00198,-218.71,,,,,,,
232.18,-0.00203,-218.92,,,,,,,
232.18,-0.00206,-219.11,,,,,,,
232.18,-0.0021,-219.29,,,,,,,
232.18,-0.00215,-219.34,,,,,,,
232.18,-0.00221,-219.41,,,,,,,
232.18,-0.00227,-219.47,,,,,,,
232.19,-0.00233,-219.45,,,,,,,
232.19,-0.00239,-219.54,,,,,,,
232.19,-0.00245,-219.7,,,,,,,
232.19,-0.0025,-219.84,,,,,,,
232.19,-0.00254,-219.94,,,,,,,
232.19,-0.00257,-219.94,,,,,,,
232.19,-0.0026,-220.07,,,,,,,
232.2,-0.00256,-220.3,,,,,,,
232.2,-0.00254,-220.34,,,,,,,
232.24,-0.00251,-209.74,,,,,,,
232.25,-0.00248,-204.86,,,,,,,
232.26,-0.00246,-200.19,,,,,,,
232.27,-0.00243,-196.05,,,,,,,
232.28,-0.0024,-191.6,,,,,,,
232.29,-0.00238,-187.63,,,,,,,
232.3,-0.00235,-183.52,,,,,,,
232.31,-0.00232,-179.47,,,,,,,
232.32,-0.0023,-175.72,,,,,,,
232.33,-0.00227,-171.92,,,,,,,
232.34,-0.00224,-168.23,,,,,,,
232.36,-0.00222,-164.62,,,,,,,
232.38,-0.00219,-160.91,,,,,,,
232.47,-0.00222,-164.99,,,,,,,
232.49,-0.00224,-168.24,,,,,,,
232.51,-0.00227,-171.52,,,,,,,
232.52,-0.0023,-174.95,,,,,,,
232.54,-0.00232,-178.3,,,,,,,
232.56,-0.00235,-181.56,,,,,,,
232.58,-0.00237,-184.74,,,,,,,
232.6,-0.0024,-187.81,,,,,,,
232.62,-0.00242,-191.25,,,,,,,
232.64,-0.00245,-194.55,,,,,,,
232.67,-0.00247,-197.94,,,,,,,
232.69,-0.0025,-201.24,,,,,,,
232.72,-0.00252,-204.16,,,,,,,
232.74,-0.00255,-206.99,,,,,,,
232.76,-0.00257,-209.87,,,,,,,
232.79,-0.0026,-212.46,,,,,,,
232.81,-0.00263,-215.04,,,,,,,
232.82,-0.00263,-215.76,,,,,,,
232.84,-0.00265,-217.7,,,,,,,
232.86,-0.00268,-220.18,,,,,,,
232.89,-0.0027,-222.66,,,,,,,
232.91,-0.00273,-224.96,,,,,,,
232.94,-0.00275,-227.28,,,,,,,
232.97,-0.00278,-229.84,,,,,,,
233.03,-0.00281,-227.64,,,,,,,
233.05,-0.00283,-230.03,,,,,,,
233.06,-0.00286,-229.79,,,,,,,
233.07,-0.00288,-230.48,,,,,,,
233.07,-0.00291,-222.62,,,,,,,
233.08,-0.00295,-223.2,,,,,,,
233.08,-0.00298,-223.38,,,,,,,
233.08,-0.00301,-223.51,,,,,,,
233.08,-0.00306,-223.52,,,,,,,
233.08,-0.0031,-223.61,,,,,,,
233.08,-0.00316,-223.77,,,,,,,
233.08,-0.00321,-223.85,,,,,,,
233.08,-0.00326,-223.93,,,,,,,
233.08,-0.0033,-223.97,,,,,,,
233.09,-0.00335,-224.03,,,,,,,
233.09,-0.00338,-224.18,,,,,,,
233.09,-0.00341,-224.29,,,,,,,
233.09,-0.00343,-224.43,,,,,,,
233.09,-0.0034,-224.67,,,,,,,
233.1,-0.00337,-224.51,,,,,,,
233.14,-0.00335,-212.66,,,,,,,
233.15,-0.00332,-207.92,,,,,,,
233.16,-0.0033,-203.21,,,,,,,
233.16,-0.00327,-198.97,,,,,,,
233.17,-0.00324,-193.82,,,,,,,
233.18,-0.00321,-189.95,,,,,,,
233.18,-0.00319,-186.05,,,,,,,
233.19,-0.00316,-181.4,,,,,,,
233.2,-0.00313,-177.54,,,,,,,
233.2,-0.00311,-173.75,,,,,,,
233.21,-0.00308,-169.34,,,,,,,
233.21,-0.00305,-165.09,,,,,,,
233.22,-0.00302,-161.53,,,,,,,
233.23,-0.003,-157.46,,,,,,,
233.23,-0.00297,-153.67,,,,,,,
233.24,-0.00294,-150.03,,,,,,,
233.25,-0.00292,-146.14,,,,,,,
233.26,-0.00289,-142.49,,,,,,,
233.27,-0.00286,-138.65,,,,,,,
233.27,-0.00284,-135.13,,,,,,,
233.28,-0.00281,-131.63,,,,,,,
233.29,-0.00279,-128.19,,,,,,,
233.31,-0.00276,-124.56,,,,,,,
233.32,-0.00273,-121.33,,,,,,,
233.34,-0.00271,-117.93,,,,,,,
233.36,-0.00268,-114.49,,,,,,,
233.39,-0.00266,-111.01,,,,,,,
233.44,-0.00263,-107.4,,,,,,,
233.48,-0.00261,-103.67,,,,,,,
233.53,-0.00258,-99.03,,,,,,,
233.56,-0.00256,-94.95,,,,,,,
233.59,-0.00253,-91.19,,,,,,,
233.61,-0.00251,-87.86,,,,,,,
233.64,-0.00248,-84.28,,,,,,,
233.66,-0.00245,-80.87,,,,,,,
233.69,-0.00243,-77.34,,,,,,,
233.72,-0.0024,-73.51,,,,,,,
233.75,-0.00238,-69.39,,,,,,,
233.78,-0.00235,-65.51,,,,,,,
233.8,-0.00233,-61.46,,,,,,,
233.82,-0.00231,-59.34,,,,,,,
233.83,-0.0023,-57.58,,,,,,,
233.86,-0.00228,-53.96,,,,,,,
233.88,-0.00225,-50.37,,,,,,,
233.91,-0.00223,-46.89,,,,,,,
233.93,-0.0022,-43.55,,,,,,,
233.96,-0.00217,-40.06,,,,,,,
233.98,-0.00215,-36.78,,,,,,,
234.01,-0.00212,-33.45,,,,,,,
234.03,-0.0021,-30.3,,,,,,,
234.06,-0.00207,-26.91,,,,,,,
234.09,-0.00205,-23.86,,,,,,,
234.12,-0.00202,-20.46,,,,,,,
234.14,-0.002,-17.3,,,,,,,
234.17,-0.00197,-14.06,,,,,,,
234.2,-0.00195,-10.72,,,,,,,
234.22,-0.00192,-7.5,,,,,,,
234.25,-0.0019,-4.36,,,,,,,
234.28,-0.00187,-1.04,,,,,,,
234.31,-0.00184,2.18,,,,,,,
234.33,-0.00182,5.34,,,,,,,
234.36,-0.00179,8.78,,,,,,,
234.39,-0.00177,12.25,,,,,,,
234.42,-0.00174,15.27,,,,,,,
234.45,-0.00172,18.51,,,,,,,
234.47,-0.00169,21.59,,,,,,,
234.5,-0.00167,24.37,,,,,,,
234.52,-0.00164,27.09,,,,,,,
234.57,-0.00162,29.5,,,,,,,
234.62,-0.00159,32.67,,,,,,,
234.66,-0.00156,36.01,,,,,,,
234.7,-0.00154,39.65,,,,,,,
234.72,-0.00151,42.67,,,,,,,
234.75,-0.00149,46.78,,,,,,,
234.77,-0.00146,50.09,,,,,,,
234.79,-0.00144,53.33,,,,,,,
234.82,-0.00141,56.52,,,,,,,
234.82,-0.00141,56.91,,,,,,,
234.84,-0.00139,59.47,,,,,,,
234.87,-0.00136,62.57,,,,,,,
234.9,-0.00134,65.49,,,,,,,
234.93,-0.00131,68.37,,,,,,,
234.96,-0.00129,71.26,,,,,,,
234.99,-0.00126,74.05,,,,,,,
235.02,-0.00123,76.92,,,,,,,
235.06,-0.00121,79.79,,,,,,,
235.09,-0.00118,82.5,,,,,,,
235.12,-0.00116,85.56,,,,,,,
235.15,-0.00113,88.63,,,,,,,
235.18,-0.00111,91.28,,,,,,,
235.2,-0.00108,94.19,,,,,,,
235.23,-0.00106,97.08,,,,,,,
235.25,-0.00103,100.27,,,,,,,
235.27,-0.00101,103.38,,,,,,,
235.29,-0.00098,106.68,,,,,,,
235.31,-0.00095,109.81,,,,,,,
235.32,-0.00093,112.7,,,,,,,
235.34,-0.0009,116.01,,,,,,,
235.36,-0.00088,118.87,,,,,,,
235.38,-0.00085,122.16,,,,,,,
235.39,-0.00083,124.86,,,,,,,
235.41,-0.0008,127.81,,,,,,,
235.42,-0.00077,130.39,,,,,,,
235.44,-0.00075,133.19,,,,,,,
235.46,-0.00072,135.87,,,,,,,
235.48,-0.00069,138.36,,,,,,,
235.5,-0.00067,140.97,,,,,,,
235.53,-0.00064,143.44,,,,,,,
235.55,-0.00062,145.66,,,,,,,
235.58,-0.00059,148.02,,,,,,,
235.6,-0.00057,150.24,,,,,,,
235.63,-0.00054,152.47,,,,,,,
235.65,-0.00051,154.83,,,,,,,
235.68,-0.00049,157.12,,,,,,,
235.71,-0.00046,159.47,,,,,,,
235.74,-0.00044,161.93,,,,,,,
235.76,-0.00041,164.22,,,,,,,
235.79,-0.00039,166.56,,,,,,,
235.81,-0.00036,168.87,,,,,,,
235.82,-0.00036,169.41,,,,,,,
235.84,-0.00034,171.04,,,,,,,
235.86,-0.00031,173.24,,,,,,,
235.89,-0.00029,175.32,,,,,,,
235.91,-0.00026,177.43,,,,,,,
235.94,-0.00023,179.64,,,,,,,
235.96,-0.00021,181.6,,,,,,,
235.98,-0.00018,183.21,,,,,,,
236.01,-0.00016,183.87,,,,,,,
236.02,-0.00013,184.54,,,,,,,
236.03,-0.00011,185.12,,,,,,,
584.32,-0.0001,174.05,,,,,,,
584.35,-8e-05,176.11,,,,,,,
584.38,-5e-05,178.59,,,,,,,
584.41,-3e-05,180.74,,,,,,,
584.43,-0.0,182.7,,,,,,,
584.46,3e-05,184.67,,,,,,,
584.48,5e-05,186.68,,,,,,,
584.51,8e-05,188.84,,,,,,,
584.53,0.0001,190.98,,,,,,,
584.56,0.00013,192.76,,,,,,,
584.58,0.00015,194.64,,,,,,,
584.61,0.00018,196.67,,,,,,,
584.63,0.0002,198.4,,,,,,,
584.66,0.00023,200.31,,,,,,,
584.67,0.00026,196.22,,,,,,,
584.67,0.0003,196.37,,,,,,,
584.67,0.00033,196.45,,,,,,,
584.67,0.00036,196.53,,,,,,,
584.67,0.00039,196.6,,,,,,,
584.67,0.00042,196.66,,,,,,,
584.68,0.00046,196.75,,,,,,,
584.68,0.00049,196.82,,,,,,,
584.68,0.00052,196.89,,,,,,,
584.68,0.00056,197.04,,,,,,,
584.68,0.00059,197.21,,,,,,,
584.69,0.00056,197.51,,,,,,,
584.76,0.00054,184.49,,,,,,,
584.78,0.00051,179.82,,,,,,,
584.8,0.00049,175.61,,,,,,,
584.82,0.00047,172.32,,,,,,,
584.83,0.00046,171.24,,,,,,,
584.87,0.00043,166.98,,,,,,,
584.94,0.00046,169.1,,,,,,,
584.97,0.00049,171.92,,,,,,,
584.99,0.00051,174.88,,,,,,,
585.01,0.00054,177.43,,,,,,,
585.03,0.00056,180.43,,,,,,,
585.05,0.00059,183.35,,,,,,,
585.07,0.00061,185.98,,,,,,,
585.09,0.00064,188.8,,,,,,,
585.11,0.00067,191.2,,,,,,,
585.13,0.00069,193.59,,,,,,,
585.16,0.00072,195.88,,,,,,,
585.18,0.00074,198.15,,,,,,,
585.21,0.00077,200.35,,,,,,,
585.23,0.00079,202.4,,,,,,,
585.26,0.00082,204.46,,,,,,,
585.29,0.00084,206.58,,,,,,,
585.31,0.00087,208.62,,,,,,,
585.34,0.00089,210.93,,,,,,,
585.37,0.00092,213.27,,,,,,,
585.4,0.00095,215.43,,,,,,,
585.42,0.00097,211.1,,,,,,,
585.42,0.001,211.57,,,,,,,
585.42,0.00103,211.79,,,,,,,
585.43,0.00106,212.13,,,,,,,
585.45,0.00108,213.75,,,,,,,
585.49,0.00111,214.8,,,,,,,
585.54,0.00113,214.99,,,,,,,
585.59,0.00116,215.9,,,,,,,
585.63,0.00118,217.45,,,,,,,
585.66,0.00121,219.45,,,,,,,
585.69,0.00123,221.65,,,,,,,
585.72,0.00126,223.99,,,,,,,
585.74,0.00129,218.01,,,,,,,
585.75,0.00132,218.43,,,,,,,
585.75,0.00135,218.57,,,,,,,
585.75,0.00139,218.63,,,,,,,
585.75,0.00142,218.91,,,,,,,
585.75,0.00145,219.13,,,,,,,
585.77,0.00147,220.44,,,,,,,
585.82,0.00149,219.75,,,,,,,
585.93,0.0015,215.51,,,,,,,
585.98,0.00152,216.51,,,,,,,
586.01,0.00155,218.54,,,,,,,
586.04,0.00157,221.01,,,,,,,
586.07,0.0016,223.7,,,,,,,
586.09,0.00163,226.09,,,,,,,
586.11,0.00165,228.4,,,,,,,
586.13,0.00168,230.76,,,,,,,
586.14,0.0017,222.01,,,,,,,
586.14,0.00175,222.01,,,,,,,
586.14,0.00179,222.26,,,,,,,
586.14,0.00183,222.44,,,,,,,
586.15,0.00188,222.47,,,,,,,
586.15,0.00194,222.55,,,,,,,
586.15,0.002,222.56,,,,,,,
586.15,0.00206,222.6,,,,,,,
586.15,0.00211,222.79,,,,,,,
586.15,0.00216,222.95,,,,,,,
586.15,0.0022,223.1,,,,,,,
586.15,0.00224,223.21,,,,,,,
586.15,0.00228,223.23,,,,,,,
586.16,0.00225,223.72,,,,,,,
586.16,0.00222,223.79,,,,,,,
586.17,0.00225,223.15,,,,,,,
586.2,0.00222,215.05,,,,,,,
586.21,0.0022,210.1,,,,,,,
586.22,0.00217,205.73,,,,,,,
586.24,0.00214,200.69,,,,,,,
586.25,0.00211,195.97,,,,,,,
586.25,0.00209,192.11,,,,,,,
586.26,0.00206,187.74,,,,,,,
586.27,0.00204,183.56,,,,,,,
586.28,0.00201,179.51,,,,,,,
586.29,0.00198,175.8,,,,,,,
586.31,0.00196,172.31,,,,,,,
586.32,0.00193,168.86,,,,,,,
586.34,0.00191,165.55,,,,,,,
586.45,0.00193,170.78,,,,,,,
586.47,0.00196,174.51,,,,,,,
586.48,0.00198,177.94,,,,,,,
586.5,0.00201,181.59,,,,,,,
586.52,0.00204,185.18,,,,,,,
586.54,0.00206,188.5,,,,,,,
586.55,0.00209,191.61,,,,,,,
586.57,0.00211,194.91,,,,,,,
586.59,0.00214,198.23,,,,,,,
586.61,0.00217,201.49,,,,,,,
586.64,0.00219,204.58,,,,,,,
586.66,0.00222,207.36,,,,,,,
586.69,0.00224,210.29,,,,,,,
586.71,0.00227,213.27,,,,,,,
586.74,0.00229,215.77,,,,,,,
586.76,0.00232,217.98,,,,,,,
586.79,0.00234,220.32,,,,,,,
586.81,0.00237,222.73,,,,,,,
586.82,0.00237,223.23,,,,,,,
586.84,0.00239,225.1,,,,,,,
586.87,0.00242,227.62,,,,,,,
586.9,0.00245,230.1,,,,,,,
586.93,0.00247,232.54,,,,,,,
586.95,0.0025,234.92,,,,,,,
586.98,0.00252,237.14,,,,,,,
587.0,0.00255,239.17,,,,,,,
587.02,0.00257,241.16,,,,,,,
587.04,0.0026,228.05,,,,,,,
587.05,0.00263,228.56,,,,,,,
587.05,0.00265,228.68,,,,,,,
587.05,0.00268,228.76,,,,,,,
587.05,0.00271,229.23,,,,,,,
587.07,0.00274,231.07,,,,,,,
587.11,0.00277,231.31,,,,,,,
587.21,0.00279,228.94,,,,,,,
587.27,0.00282,229.76,,,,,,,
587.3,0.00284,231.66,,,,,,,
587.33,0.00287,234.04,,,,,,,
587.36,0.00289,236.01,,,,,,,
587.41,0.00292,236.38,,,,,,,
587.49,0.00289,227.34,,,,,,,
587.51,0.00287,222.84,,,,,,,
587.54,0.00284,217.84,,,,,,,
587.56,0.00282,212.85,,,,,,,
587.58,0.00279,208.12,,,,,,,
587.61,0.00277,203.75,,,,,,,
587.63,0.00274,199.55,,,,,,,
587.65,0.00272,195.29,,,,,,,
587.67,0.00269,191.17,,,,,,,
587.69,0.00266,186.98,,,,,,,
587.72,0.00264,183.1,,,,,,,
587.74,0.00261,179.35,,,,,,,
587.77,0.00259,175.32,,,,,,,
587.79,0.00256,171.33,,,,,,,
587.82,0.00254,167.3,,,,,,,
587.85,0.00251,163.09,,,,,,,
587.88,0.00249,159.2,,,,,,,
587.9,0.00246,155.73,,,,,,,
587.93,0.00244,151.9,,,,,,,
587.96,0.00241,147.93,,,,,,,
587.99,0.00238,143.73,,,,,,,
588.02,0.00236,139.57,,,,,,,
588.04,0.00233,135.76,,,,,,,
588.07,0.00231,132.27,,,,,,,
588.1,0.00228,128.2,,,,,,,
588.13,0.00226,124.22,,,,,,,
588.15,0.00223,120.63,,,,,,,
588.18,0.00221,116.76,,,,,,,
588.21,0.00218,113.05,,,,,,,
588.23,0.00216,109.33,,,,,,,
588.26,0.00213,105.62,,,,,,,
588.29,0.0021,101.64,,,,,,,
588.32,0.00208,97.88,,,,,,,
588.34,0.00205,94.33,,,,,,,
588.37,0.00203,90.91,,,,,,,
588.39,0.002,87.3,,,,,,,
588.42,0.00198,83.56,,,,,,,
588.45,0.00195,80.21,,,,,,,
588.48,0.00192,76.55,,,,,,,
588.5,0.0019,73.19,,,,,,,
588.53,0.00187,69.7,,,,,,,
588.55,0.00185,66.45,,,,,,,
588.58,0.00182,63.21,,,,,,,
588.61,0.0018,59.7,,,,,,,
588.64,0.00177,56.22,,,,,,,
588.66,0.00175,53.0,,,,,,,
588.69,0.00172,49.7,,,,,,,
588.72,0.0017,45.86,,,,,,,
588.75,0.00167,42.59,,,,,,,
588.77,0.00165,39.14,,,,,,,
588.8,0.00162,35.49,,,,,,,
588.82,0.0016,33.32,,,,,,,
588.83,0.0016,32.34,,,,,,,
588.86,0.00157,28.76,,,,,,,
588.88,0.00154,25.55,,,,,,,
588.91,0.00152,21.97,,,,,,,
588.94,0.00149,18.72,,,,,,,
588.96,0.00147,15.28,,,,,,,
589.0,0.00144,11.42,,,,,,,
589.03,0.00142,7.66,,,,,,,
589.06,0.00139,3.94,,,,,,,
589.08,0.00137,0.63,,,,,,,
589.11,0.00134,-2.54,,,,,,,
589.13,0.00131,-5.9,,,,,,,
589.16,0.00129,-9.26,,,,,,,
589.19,0.00126,-12.42,,,,,,,
589.21,0.00124,-15.43,,,,,,,
589.24,0.00121,-18.26,,,,,,,
589.28,0.00119,-21.08,,,,,,,
589.4,0.00116,-22.51,,,,,,,
589.45,0.00114,-26.02,,,,,,,
589.49,0.00111,-29.81,,,,,,,
589.53,0.00109,-33.95,,,,,,,
589.57,0.00106,-38.14,,,,,,,
589.6,0.00103,-41.98,,,,,,,
589.62,0.00101,-45.44,,,,,,,
589.64,0.00098,-49.13,,,,,,,
589.67,0.00096,-53.19,,,,,,,
589.68,0.00093,-57.34,,,,,,,
589.69,0.00091,-60.97,,,,,,,
589.71,0.00088,-64.33,,,,,,,
589.72,0.00086,-67.7,,,,,,,
589.73,0.00083,-71.16,,,,,,,
589.74,0.0008,-74.61,,,,,,,
589.76,0.00078,-77.89,,,,,,,
589.77,0.00075,-81.29,,,,,,,
589.78,0.00072,-84.86,,,,,,,
589.8,0.0007,-87.96,,,,,,,
589.81,0.00067,-91.34,,,,,,,
589.82,0.00066,-92.56,,,,,,,
589.83,0.00065,-94.2,,,,,,,
589.85,0.00062,-97.79,,,,,,,
589.86,0.0006,-100.6,,,,,,,
589.88,0.00057,-103.69,,,,,,,
589.9,0.00054,-106.82,,,,,,,
589.92,0.00052,-109.86,,,,,,,
589.94,0.00049,-112.63,,,,,,,
589.96,0.00047,-115.58,,,,,,,
589.99,0.00044,-118.2,,,,,,,
590.01,0.00042,-120.73,,,,,,,
590.03,0.00039,-123.48,,,,,,,
590.06,0.00036,-126.33,,,,,,,
590.09,0.00034,-129.13,,,,,,,
590.12,0.00031,-131.68,,,,,,,
590.14,0.00029,-134.11,,,,,,,
590.16,0.00026,-136.27,,,,,,,
590.19,0.00024,-138.74,,,,,,,
590.21,0.00021,-141.43,,,,,,,
590.24,0.00019,-143.7,,,,,,,
590.26,0.00016,-145.93,,,,,,,
590.29,0.00013,-148.04,,,,,,,
590.31,0.00011,-150.25,,,,,,,
590.34,8e-05,-152.27,,,,,,,
590.36,6e-05,-154.29,,,,,,,
590.39,3e-05,-156.38,,,,,,,
590.42,1e-05,-158.73,,,,,,,
590.44,-2e-05,-160.92,,,,,,,
590.47,-4e-05,-163.12,,,,,,,
590.5,-7e-05,-165.42,,,,,,,
590.53,-9e-05,-167.6,,,,,,,
590.55,-0.00012,-169.62,,,,,,,
590.57,-0.00015,-171.42,,,,,,,
590.6,-0.00017,-173.62,,,,,,,
590.62,-0.0002,-175.62,,,,,,,
590.65,-0.00022,-177.46,,,,,,,
590.67,-0.00025,-179.22,,,,,,,
590.7,-0.00027,-181.15,,,,,,,
590.72,-0.0003,-182.83,,,,,,,
590.75,-0.00032,-184.68,,,,,,,
590.77,-0.00035,-186.38,,,,,,,
590.8,-0.00038,-188.26,,,,,,,
590.82,-0.00039,-189.55,,,,,,,
590.83,-0.0004,-190.2,,,,,,,
590.86,-0.00043,-192.05,,,,,,,
590.88,-0.00045,-193.9,,,,,,,
590.91,-0.00048,-195.65,,,,,,,
590.93,-0.0005,-197.67,,,,,,,
590.95,-0.00053,-195.18,,,,,,,
590.96,-0.00056,-195.49,,,,,,,
590.96,-0.00059,-195.59,,,,,,,
590.96,-0.00061,-195.77,,,,,,,
590.96,-0.00064,-196.0,,,,,,,
591.0,-0.00067,-197.3,,,,,,,
591.13,-0.00069,-195.51,,,,,,,
591.17,-0.00072,-197.21,,,,,,,
591.2,-0.00074,-199.45,,,,,,,
591.23,-0.00077,-201.75,,,,,,,
591.26,-0.0008,-204.14,,,,,,,
591.28,-0.00082,-206.4,,,,,,,
591.3,-0.00085,-208.82,,,,,,,
591.34,-0.00087,-209.94,,,,,,,
591.37,-0.0009,-212.34,,,,,,,
591.39,-0.00093,-213.68,,,,,,,
591.4,-0.00096,-207.75,,,,,,,
591.4,-0.001,-207.53,,,,,,,
591.4,-0.00102,-207.67,,,,,,,
591.4,-0.00106,-207.86,,,,,,,
591.4,-0.0011,-207.97,,,,,,,
591.4,-0.00114,-208.03,,,,,,,
591.4,-0.00119,-208.17,,,,,,,
591.4,-0.00124,-208.25,,,,,,,
591.41,-0.00129,-208.29,,,,,,,
591.41,-0.00134,-208.39,,,,,,,
591.41,-0.00138,-208.52,,,,,,,
591.41,-0.00142,-208.67,,,,,,,
591.41,-0.00144,-208.79,,,,,,,
591.41,-0.00148,-208.9,,,,,,,
591.42,-0.00145,-209.38,,,,,,,
591.47,-0.00142,-197.51,,,,,,,
591.48,-0.00139,-192.45,,,,,,,
591.49,-0.00137,-188.13,,,,,,,
591.5,-0.00134,-183.75,,,,,,,
591.51,-0.00132,-179.54,,,,,,,
591.52,-0.00129,-175.59,,,,,,,
591.53,-0.00126,-171.39,,,,,,,
591.54,-0.00124,-167.42,,,,,,,
591.56,-0.00121,-163.56,,,,,,,
591.57,-0.00119,-159.69,,,,,,,
591.59,-0.00116,-156.28,,,,,,,
591.7,-0.00119,-159.88,,,,,,,
591.72,-0.00121,-163.29,,,,,,,
591.74,-0.00124,-166.66,,,,,,,
591.76,-0.00126,-169.91,,,,,,,
591.78,-0.00129,-173.16,,,,,,,
591.79,-0.00131,-176.21,,,,,,,
591.81,-0.00134,-179.37,,,,,,,
591.82,-0.00135,-180.64,,,,,,,
591.83,-0.00136,-182.34,,,,,,,
591.85,-0.00139,-185.41,,,,,,,
591.87,-0.00142,-188.35,,,,,,,
591.89,-0.00144,-191.16,,,,,,,
591.92,-0.00147,-193.95,,,,,,,
591.94,-0.00149,-196.76,,,,,,,
591.97,-0.00152,-199.31,,,,,,,
591.99,-0.00154,-201.65,,,,,,,
592.02,-0.00157,-204.01,,,,,,,
592.04,-0.00159,-206.3,,,,,,,
592.07,-0.00162,-208.79,,,,,,,
592.1,-0.00164,-211.31,,,,,,,
592.13,-0.00167,-213.67,,,,,,,
592.15,-0.0017,-215.64,,,,,,,
592.17,-0.00172,-217.69,,,,,,,
592.2,-0.00175,-220.01,,,,,,,
592.23,-0.00177,-222.12,,,,,,,
592.25,-0.0018,-224.28,,,,,,,
592.27,-0.00182,-220.03,,,,,,,
592.28,-0.00186,-220.42,,,,,,,
592.28,-0.00189,-220.54,,,,,,,
592.28,-0.00193,-220.64,,,,,,,
592.28,-0.00196,-220.86,,,,,,,
592.28,-0.002,-221.07,,,,,,,
592.44,-0.00202,-216.28,,,,,,,
592.51,-0.00205,-216.52,,,,,,,
592.54,-0.00207,-218.49,,,,,,,
592.57,-0.0021,-220.72,,,,,,,
592.6,-0.00212,-223.18,,,,,,,
592.62,-0.00215,-225.5,,,,,,,
592.64,-0.00218,-227.58,,,,,,,
592.67,-0.0022,-229.89,,,,,,,
592.69,-0.00223,-232.03,,,,,,,
592.71,-0.00225,-234.47,,,,,,,
592.74,-0.00228,-236.71,,,,,,,
592.77,-0.0023,-223.69,,,,,,,
592.78,-0.00233,-224.04,,,,,,,
592.78,-0.00236,-224.58,,,,,,,
592.81,-0.00239,-228.16,,,,,,,
592.82,-0.00239,-228.64,,,,,,,
592.85,-0.00241,-230.64,,,,,,,
592.87,-0.00244,-232.55,,,,,,,
592.89,-0.00246,-233.99,,,,,,,
592.92,-0.00249,-234.68,,,,,,,
592.94,-0.00252,-234.67,,,,,,,
592.95,-0.00254,-230.8,,,,,,,
592.95,-0.00258,-230.9,,,,,,,
592.95,-0.00261,-230.92,,,,,,,
592.95,-0.00264,-230.93,,,,,,,
592.95,-0.00268,-231.05,,,,,,,
592.96,-0.00272,-231.17,,,,,,,
592.96,-0.00277,-231.18,,,,,,,
592.96,-0.00281,-231.18,,,,,,,
592.96,-0.00285,-231.18,,,,,,,
592.96,-0.00289,-231.24,,,,,,,
592.96,-0.00292,-231.36,,,,,,,
592.96,-0.00296,-231.47,,,,,,,
592.97,-0.00293,-231.54,,,,,,,
593.03,-0.00291,-218.98,,,,,,,
593.04,-0.00288,-214.38,,,,,,,
593.06,-0.00285,-208.99,,,,,,,
593.07,-0.00283,-204.87,,,,,,,
593.08,-0.0028,-200.83,,,,,,,
593.09,-0.00277,-196.54,,,,,,,
593.11,-0.00275,-192.69,,,,,,,
593.13,-0.00272,-188.58,,,,,,,
593.25,-0.00275,-190.66,,,,,,,
593.27,-0.00278,-193.6,,,,,,,
593.29,-0.0028,-196.94,,,,,,,
593.31,-0.00283,-200.29,,,,,,,
593.33,-0.00285,-203.08,,,,,,,
593.35,-0.00288,-205.87,,,,,,,
593.38,-0.0029,-208.17,,,,,,,
593.43,-0.00293,-208.6,,,,,,,
593.5,-0.0029,-201.43,,,,,,,
593.52,-0.00288,-197.08,,,,,,,
593.54,-0.00285,-192.29,,,,,,,
593.57,-0.00283,-187.64,,,,,,,
593.59,-0.0028,-183.08,,,,,,,
593.61,-0.00277,-179.04,,,,,,,
593.63,-0.00275,-175.05,,,,,,,
593.65,-0.00272,-171.07,,,,,,,
593.67,-0.0027,-166.78,,,,,,,
593.7,-0.00267,-162.25,,,,,,,
593.72,-0.00265,-157.83,,,,,,,
593.75,-0.00262,-153.26,,,,,,,
593.78,-0.00259,-149.29,,,,,,,
593.8,-0.00257,-145.37,,,,,,,
593.82,-0.00255,-142.8,,,,,,,
593.83,-0.00254,-141.09,,,,,,,
593.86,-0.00252,-136.66,,,,,,,
593.89,-0.00249,-132.44,,,,,,,
593.92,-0.00247,-127.96,,,,,,,
593.94,-0.00244,-124.5,,,,,,,
593.96,-0.00242,-121.12,,,,,,,
593.99,-0.00239,-117.4,,,,,,,
594.02,-0.00236,-113.13,,,,,,,
594.05,-0.00234,-109.07,,,,,,,
594.07,-0.00231,-105.33,,,,,,,
594.1,-0.00229,-101.34,,,,,,,
594.13,-0.00226,-97.32,,,,,,,
594.16,-0.00224,-93.96,,,,,,,
594.18,-0.00221,-90.08,,,,,,,
594.21,-0.00219,-86.34,,,,,,,
594.24,-0.00216,-82.38,,,,,,,
594.26,-0.00213,-78.51,,,,,,,
594.29,-0.00211,-74.76,,,,,,,
594.32,-0.00208,-71.22,,,,,,,
594.34,-0.00206,-67.46,,,,,,,
594.37,-0.00203,-64.06,,,,,,,
594.4,-0.00201,-60.33,,,,,,,
594.43,-0.00198,-56.39,,,,,,,
594.46,-0.00195,-52.62,,,,,,,
594.48,-0.00193,-48.93,,,,,,,
594.51,-0.0019,-45.47,,,,,,,
594.53,-0.00188,-42.06,,,,,,,
594.56,-0.00185,-38.42,,,,,,,
594.59,-0.00183,-34.69,,,,,,,
594.62,-0.0018,-31.27,,,,,,,
594.65,-0.00178,-27.32,,,,,,,
594.67,-0.00175,-24.0,,,,,,,
594.7,-0.00172,-20.47,,,,,,,
594.73,-0.0017,-16.71,,,,,,,
594.75,-0.00167,-13.26,,,,,,,
594.78,-0.00165,-9.68,,,,,,,
594.81,-0.00162,-6.08,,,,,,,
594.82,-0.00161,-5.12,,,,,,,
594.84,-0.0016,-2.61,,,,,,,
594.86,-0.00157,0.75,,,,,,,
594.89,-0.00155,3.88,,,,,,,
594.92,-0.00152,7.19,,,,,,,
594.94,-0.00149,10.64,,,,,,,
594.97,-0.00147,13.97,,,,,,,
595.0,-0.00144,17.49,,,,,,,
595.03,-0.00142,20.73,,,,,,,
595.05,-0.00139,24.2,,,,,,,
595.08,-0.00137,27.13,,,,,,,
595.13,-0.00134,29.66,,,,,,,
595.17,-0.00132,32.78,,,,,,,
595.22,-0.00129,36.18,,,,,,,
595.25,-0.00127,39.61,,,,,,,
595.28,-0.00124,42.78,,,,,,,
595.3,-0.00122,45.75,,,,,,,
595.33,-0.00119,49.42,,,,,,,
595.35,-0.00116,52.71,,,,,,,
595.37,-0.00114,55.83,,,,,,,
595.39,-0.00111,58.82,,,,,,,
595.41,-0.00109,61.9,,,,,,,
595.44,-0.00106,65.12,,,,,,,
595.47,-0.00104,68.01,,,,,,,
595.5,-0.00101,70.61,,,,,,,
595.54,-0.00098,73.79,,,,,,,
595.58,-0.00096,76.98,,,,,,,
595.61,-0.00093,79.85,,,,,,,
595.64,-0.00091,82.61,,,,,,,
595.67,-0.00088,85.59,,,,,,,
595.7,-0.00086,88.62,,,,,,,
595.73,-0.00083,91.49,,,,,,,
595.75,-0.00081,94.38,,,,,,,
595.78,-0.00078,96.87,,,,,,,
595.8,-0.00075,100.09,,,,,,,
595.82,-0.00073,102.89,,,,,,,
595.82,-0.00073,103.54,,,,,,,
595.84,-0.0007,106.38,,,,,,,
595.86,-0.00068,109.49,,,,,,,
595.87,-0.00065,112.37,,,,,,,
595.89,-0.00063,115.44,,,,,,,
595.9,-0.0006,118.22,,,,,,,
595.92,-0.00057,121.58,,,,,,,
595.94,-0.00055,124.44,,,,,,,
595.96,-0.00052,127.26,,,,,,,
595.98,-0.0005,130.11,,,,,,,
595.99,-0.00047,132.88,,,,,,,
596.01,-0.00045,135.73,,,,,,,
596.04,-0.00042,138.5,,,,,,,
596.06,-0.00039,141.13,,,,,,,
596.08,-0.00037,143.74,,,,,,,
596.1,-0.00034,146.12,,,,,,,
596.13,-0.00032,148.45,,,,,,,
596.15,-0.00029,150.75,,,,,,,
596.17,-0.00027,153.02,,,,,,,
596.2,-0.00024,155.39,,,,,,,
596.23,-0.00022,157.72,,,,,,,
596.26,-0.00019,160.35,,,,,,,
596.28,-0.00017,162.51,,,,,,,
596.3,-0.00014,164.72,,,,,,,
1184.76,-0.00011,171.52,,,,,,,
1184.78,-9e-05,173.5,,,,,,,
1184.81,-6e-05,175.3,,,,,,,
1184.82,-5e-05,176.14,,,,,,,
1184.84,-3e-05,177.37,,,,,,,
1184.86,-1e-05,179.16,,,,,,,
1184.89,2e-05,181.0,,,,,,,
1184.91,4e-05,182.78,,,,,,,
1184.94,7e-05,184.64,,,,,,,
1184.96,9e-05,186.32,,,,,,,
1184.99,0.00012,188.08,,,,,,,
1185.01,0.00014,189.82,,,,,,,
1185.04,0.00017,191.59,,,,,,,
1185.07,0.0002,193.29,,,,,,,
1185.09,0.00022,195.14,,,,,,,
1185.12,0.00025,197.07,,,,,,,
1185.15,0.00027,198.94,,,,,,,
1185.18,0.0003,200.8,,,,,,,
1185.2,0.00032,202.56,,,,,,,
1185.21,0.00035,200.66,,,,,,,
1185.22,0.00038,201.02,,,,,,,
1185.24,0.0004,202.36,,,,,,,
1185.26,0.00043,201.88,,,,,,,
1185.26,0.00045,202.11,,,,,,,
1185.27,0.00048,202.18,,,,,,,
1185.27,0.00051,202.36,,,,,,,
1185.32,0.00053,202.38,,,,,,,
1185.4,0.00056,200.4,,,,,,,
1185.45,0.00058,200.64,,,,,,,
1185.49,0.00061,202.02,,,,,,,
1185.52,0.00063,203.79,,,,,,,
1185.54,0.00066,205.81,,,,,,,
1185.57,0.00068,208.01,,,,,,,
1185.6,0.00071,210.05,,,,,,,
1185.62,0.00074,212.25,,,,,,,
1185.64,0.00076,214.17,,,,,,,
1185.67,0.00079,215.92,,,,,,,
1185.68,0.00081,210.95,,,,,,,
1185.68,0.00085,210.82,,,,,,,
1185.68,0.00087,210.97,,,,,,,
1185.68,0.00091,211.17,,,,,,,
1185.68,0.00095,211.25,,,,,,,
1185.69,0.001,211.31,,,,,,,
1185.69,0.00106,211.35,,,,,,,
1185.69,0.00111,211.36,,,,,,,
1185.69,0.00117,211.45,,,,,,,
1185.69,0.00122,211.56,,,,,,,
1185.69,0.00126,211.64,,,,,,,
1185.69,0.0013,211.77,,,,,,,
1185.69,0.00132,211.84,,,,,,,
1185.69,0.00135,211.93,,,,,,,
1185.7,0.00133,212.13,,,,,,,
1185.7,0.0013,212.16,,,,,,,
1185.75,0.00127,199.31,,,,,,,
1185.76,0.00124,194.2,,,,,,,
1185.77,0.00122,189.71,,,,,,,
1185.78,0.00119,185.81,,,,,,,
1185.79,0.00116,181.14,,,,,,,
1185.8,0.00114,177.44,,,,,,,
1185.81,0.00111,173.58,,,,,,,
1185.82,0.0011,170.71,,,,,,,
1185.82,0.00109,169.43,,,,,,,
1185.83,0.00106,165.72,,,,,,,
1185.85,0.00103,161.85,,,,,,,
1185.87,0.00101,158.7,,,,,,,
1185.9,0.00098,155.64,,,,,,,
1185.97,0.00101,159.56,,,,,,,
1185.99,0.00103,163.0,,,,,,,
1186.01,0.00106,166.46,,,,,,,
1186.02,0.00109,169.7,,,,,,,
1186.04,0.00111,172.93,,,,,,,
1186.06,0.00114,176.21,,,,,,,
1186.07,0.00116,179.45,,,,,,,
1186.09,0.00119,182.44,,,,,,,
1186.11,0.00122,185.32,,,,,,,
1186.13,0.00124,188.32,,,,,,,
1186.15,0.00127,191.1,,,,,,,
1186.17,0.00129,193.68,,,,,,,
1186.2,0.00132,196.25,,,,,,,
1186.22,0.00134,198.57,,,,,,,
1186.25,0.00137,200.97,,,,,,,
1186.28,0.00139,203.33,,,,,,,
1186.31,0.00142,205.79,,,,,,,
1186.33,0.00144,207.95,,,,,,,
1186.36,0.00147,209.98,,,,,,,
1186.39,0.00149,212.6,,,,,,,
1186.42,0.00152,215.1,,,,,,,
1186.45,0.00155,217.66,,,,,,,
1186.48,0.00157,220.05,,,,,,,
1186.5,0.0016,222.37,,,,,,,
1186.53,0.00162,224.72,,,,,,,
1186.55,0.00165,227.03,,,,,,,
1186.56,0.00168,220.65,,,,,,,
1186.56,0.00171,220.92,,,,,,,
1186.57,0.00174,221.13,,,,,,,
1186.58,0.00176,222.8,,,,,,,
1186.61,0.00179,224.28,,,,,,,
1186.66,0.00181,225.29,,,,,,,
1186.69,0.00184,225.66,,,,,,,
1186.74,0.00186,226.59,,,,,,,
1186.77,0.00189,227.92,,,,,,,
1186.81,0.00191,229.66,,,,,,,
1186.82,0.00193,230.43,,,,,,,
1186.84,0.00194,231.54,,,,,,,
1186.86,0.00196,230.57,,,,,,,
1186.87,0.002,223.85,,,,,,,
1186.87,0.00204,224.23,,,,,,,
1186.87,0.00206,224.2,,,,,,,
1186.87,0.00209,224.28,,,,,,,
1186.87,0.00212,224.39,,,,,,,
1186.88,0.00216,224.41,,,,,,,
1186.88,0.00219,224.47,,,,,,,
1186.88,0.00221,224.54,,,,,,,
1186.88,0.00225,224.83,,,,,,,
1186.98,0.00223,215.93,,,,,,,
1187.02,0.0022,210.57,,,,,,,
1187.15,0.00223,210.77,,,,,,,
1187.18,0.00225,213.42,,,,,,,
1187.2,0.00228,216.05,,,,,,,
1187.22,0.0023,218.89,,,,,,,
1187.24,0.00233,221.9,,,,,,,
1187.26,0.00235,224.53,,,,,,,
1187.28,0.00238,226.93,,,,,,,
1187.3,0.00241,229.29,,,,,,,
1187.32,0.00243,231.67,,,,,,,
1187.34,0.00246,234.05,,,,,,,
1187.37,0.00248,236.11,,,,,,,
1187.39,0.00251,238.19,,,,,,,
1187.42,0.00253,240.14,,,,,,,
1187.44,0.00256,242.11,,,,,,,
1187.47,0.00259,234.42,,,,,,,
1187.47,0.00262,234.77,,,,,,,
1187.48,0.00266,234.85,,,,,,,
1187.48,0.00271,234.94,,,,,,,
1187.48,0.00275,235.1,,,,,,,
1187.48,0.00278,235.25,,,,,,,
1187.49,0.00281,235.64,,,,,,,
1187.49,0.00278,235.95,,,,,,,
1187.53,0.00281,234.9,,,,,,,
1187.75,0.00283,226.97,,,,,,,
1187.77,0.00286,229.0,,,,,,,
1187.79,0.00289,230.8,,,,,,,
1187.82,0.0029,231.74,,,,,,,
1187.83,0.00291,231.86,,,,,,,
1187.94,0.00289,220.27,,,,,,,
1187.97,0.00286,215.61,,,,,,,
1187.99,0.00283,211.1,,,,,,,
1188.01,0.00281,206.48,,,,,,,
1188.03,0.00278,202.07,,,,,,,
1188.05,0.00276,197.75,,,,,,,
1188.07,0.00273,193.81,,,,,,,
1188.09,0.00271,189.91,,,,,,,
1188.11,0.00268,185.77,,,,,,,
1188.14,0.00266,181.58,,,,,,,
1188.16,0.00263,177.55,,,,,,,
1188.19,0.0026,173.5,,,,,,,
1188.22,0.00258,168.82,,,,,,,
1188.25,0.00255,164.47,,,,,,,
1188.27,0.00253,161.0,,,,,,,
1188.29,0.0025,157.57,,,,,,,
1188.32,0.00248,153.54,,,,,,,
1188.35,0.00245,149.53,,,,,,,
1188.38,0.00243,145.71,,,,,,,
1188.4,0.0024,142.01,,,,,,,
1188.43,0.00238,138.51,,,,,,,
1188.46,0.00235,134.99,,,,,,,
1188.48,0.00233,131.03,,,,,,,
1188.51,0.0023,127.12,,,,,,,
1188.55,0.00227,122.71,,,,,,,
1188.58,0.00225,118.64,,,,,,,
1188.6,0.00222,115.07,,,,,,,
1188.63,0.0022,111.05,,,,,,,
1188.66,0.00217,106.25,,,,,,,
1188.69,0.00215,102.21,,,,,,,
1188.72,0.00212,98.64,,,,,,,
1188.74,0.0021,94.51,,,,,,,
1188.77,0.00207,91.12,,,,,,,
1188.79,0.00204,87.48,,,,,,,
1188.82,0.00202,83.9,,,,,,,
1188.82,0.00202,83.53,,,,,,,
1188.84,0.00199,80.59,,,,,,,
1188.86,0.00197,77.56,,,,,,,
1188.89,0.00194,73.8,,,,,,,
1188.92,0.00192,70.35,,,,,,,
1188.95,0.00189,66.69,,,,,,,
1188.98,0.00187,62.68,,,,,,,
1189.02,0.00184,58.05,,,,,,,
1189.04,0.00181,54.95,,,,,,,
1189.07,0.00179,51.31,,,,,,,
1189.09,0.00176,47.71,,,,,,,
1189.12,0.00174,43.91,,,,,,,
1189.15,0.00171,40.32,,,,,,,
1189.17,0.00169,36.72,,,,,,,
1189.2,0.00166,33.46,,,,,,,
1189.23,0.00164,29.76,,,,,,,
1189.26,0.00161,26.22,,,,,,,
1189.28,0.00158,22.79,,,,,,,
1189.31,0.00156,19.73,,,,,,,
1189.33,0.00153,16.83,,,,,,,
1189.36,0.00151,13.36,,,,,,,
1189.39,0.00148,9.93,,,,,,,
1189.42,0.00146,6.09,,,,,,,
1189.45,0.00143,2.61,,,,,,,
1189.47,0.00141,-0.25,,,,,,,
1189.5,0.00138,-3.5,,,,,,,
1189.53,0.00136,-7.19,,,,,,,
1189.55,0.00133,-10.45,,,,,,,
1189.58,0.00131,-13.64,,,,,,,
1189.61,0.00128,-16.65,,,,,,,
1189.64,0.00125,-19.4,,,,,,,
1189.68,0.00123,-22.07,,,,,,,
1189.82,0.0012,-24.69,,,,,,,
1189.82,0.0012,-24.94,,,,,,,
1189.86,0.00118,-28.49,,,,,,,
1189.89,0.00115,-31.71,,,,,,,
1189.92,0.00113,-35.3,,,,,,,
1189.96,0.0011,-39.05,,,,,,,
1189.99,0.00108,-42.71,,,,,,,
1190.01,0.00105,-46.35,,,,,,,
1190.04,0.00103,-50.31,,,,,,,
1190.05,0.001,-54.54,,,,,,,
1190.07,0.00097,-58.1,,,,,,,
1190.08,0.00095,-61.82,,,,,,,
1190.09,0.00092,-65.12,,,,,,,
1190.11,0.0009,-68.55,,,,,,,
1190.12,0.00087,-71.96,,,,,,,
1190.13,0.00084,-75.42,,,,,,,
1190.15,0.00082,-78.54,,,,,,,
1190.16,0.00079,-81.78,,,,,,,
1190.17,0.00077,-85.02,,,,,,,
1190.19,0.00074,-87.86,,,,,,,
1190.2,0.00072,-91.26,,,,,,,
1190.22,0.00069,-94.02,,,,,,,
1190.23,0.00066,-96.91,,,,,,,
1190.25,0.00064,-99.77,,,,,,,
1190.27,0.00061,-102.56,,,,,,,
1190.28,0.00059,-105.43,,,,,,,
1190.3,0.00056,-107.97,,,,,,,
1190.33,0.00054,-110.84,,,,,,,
1190.34,0.00051,-112.93,,,,,,,
1190.37,0.00049,-115.49,,,,,,,
1190.39,0.00046,-118.11,,,,,,,
1190.42,0.00043,-120.43,,,,,,,
1190.44,0.00041,-122.8,,,,,,,
1190.47,0.00038,-125.28,,,,,,,
1190.5,0.00036,-127.81,,,,,,,
1190.53,0.00033,-130.52,,,,,,,
1190.56,0.00031,-133.18,,,,,,,
1190.59,0.00028,-135.69,,,,,,,
1190.61,0.00026,-137.83,,,,,,,
1190.63,0.00023,-140.22,,,,,,,
1190.66,0.00021,-142.66,,,,,,,
1190.68,0.00018,-144.97,,,,,,,
1190.71,0.00015,-147.17,,,,,,,
1190.73,0.00013,-148.96,,,,,,,
1190.75,0.0001,-151.29,,,,,,,
1190.78,8e-05,-153.62,,,,,,,
1190.81,5e-05,-155.78,,,,,,,
1190.82,4e-05,-156.7,,,,,,,
1190.83,3e-05,-157.9,,,,,,,
1190.86,0.0,-160.05,,,,,,,
1190.89,-3e-05,-162.23,,,,,,,
1190.91,-5e-05,-164.13,,,,,,,
1190.94,-8e-05,-166.36,,,,,,,
1190.97,-0.0001,-168.47,,,,,,,
1190.99,-0.00013,-170.65,,,,,,,
1191.02,-0.00015,-172.81,,,,,,,
1191.05,-0.00018,-175.04,,,,,,,
1191.07,-0.0002,-177.06,,,,,,,
1191.09,-0.00023,-179.07,,,,,,,
1191.12,-0.00025,-181.08,,,,,,,
1191.14,-0.00028,-182.7,,,,,,,
1191.16,-0.0003,-184.57,,,,,,,
1191.19,-0.00033,-186.59,,,,,,,
1191.22,-0.00035,-188.52,,,,,,,
1191.24,-0.00038,-190.17,,,,,,,
1191.27,-0.00041,-191.87,,,,,,,
1191.3,-0.00043,-194.01,,,,,,,
1191.32,-0.00046,-195.73,,,,,,,
1191.35,-0.00048,-197.56,,,,,,,
1191.38,-0.00051,-199.38,,,,,,,
1191.39,-0.00054,-199.03,,,,,,,
1191.4,-0.00056,-199.54,,,,,,,
1191.42,-0.00059,-200.75,,,,,,,
1191.45,-0.00061,-202.19,,,,,,,
1191.48,-0.00064,-203.35,,,,,,,
1191.5,-0.00067,-203.62,,,,,,,
1191.52,-0.00069,-203.85,,,,,,,
1191.54,-0.00072,-204.54,,,,,,,
1191.59,-0.00074,-205.57,,,,,,,
1191.62,-0.00077,-206.51,,,,,,,
1191.66,-0.00079,-207.8,,,,,,,
1191.69,-0.00082,-209.41,,,,,,,
1191.72,-0.00084,-211.04,,,,,,,
1191.74,-0.00087,-212.66,,,,,,,
1191.77,-0.00089,-214.33,,,,,,,
1191.79,-0.00092,-216.0,,,,,,,
1191.81,-0.00095,-211.46,,,,,,,
1191.82,-0.00098,-211.74,,,,,,,
1191.82,-0.00099,-211.82,,,,,,,
1191.82,-0.00101,-212.08,,,,,,,
1191.84,-0.00104,-213.25,,,,,,,
1191.87,-0.00106,-214.35,,,,,,,
1191.92,-0.00109,-214.94,,,,,,,
1191.96,-0.00111,-215.53,,,,,,,
1192.0,-0.00114,-216.8,,,,,,,
1192.04,-0.00116,-218.43,,,,,,,
1192.07,-0.00119,-220.12,,,,,,,
1192.1,-0.00121,-221.93,,,,,,,
1192.12,-0.00124,-223.94,,,,,,,
1192.15,-0.00126,-225.67,,,,,,,
1192.16,-0.0013,-217.96,,,,,,,
1192.16,-0.00135,-217.99,,,,,,,
1192.16,-0.00138,-218.27,,,,,,,
1192.16,-0.00143,-218.39,,,,,,,
1192.16,-0.00149,-218.39,,,,,,,
1192.17,-0.00155,-218.44,,,,,,,
1192.17,-0.00162,-218.46,,,,,,,
1192.17,-0.00168,-218.54,,,,,,,
1192.17,-0.00174,-218.68,,,,,,,
1192.17,-0.0018,-218.78,,,,,,,
1192.17,-0.00184,-218.91,,,,,,,
1192.17,-0.00188,-218.99,,,,,,,
1192.17,-0.0019,-218.96,,,,,,,
1192.18,-0.00188,-219.36,,,,,,,
1192.18,-0.00185,-219.3,,,,,,,
1192.22,-0.00182,-207.68,,,,,,,
1192.23,-0.0018,-201.75,,,,,,,
1192.24,-0.00177,-197.17,,,,,,,
1192.25,-0.00174,-192.77,,,,,,,
1192.26,-0.00172,-188.58,,,,,,,
1192.27,-0.00169,-184.46,,,,,,,
1192.27,-0.00166,-180.28,,,,,,,
1192.28,-0.00164,-176.48,,,,,,,
1192.29,-0.00161,-172.82,,,,,,,
1192.3,-0.00158,-168.96,,,,,,,
1192.31,-0.00156,-165.51,,,,,,,
1192.32,-0.00153,-162.13,,,,,,,
1192.33,-0.00151,-158.3,,,,,,,
1192.34,-0.00148,-155.06,,,,,,,
1192.37,-0.00146,-152.09,,,,,,,
1192.45,-0.00148,-156.61,,,,,,,
1192.47,-0.00151,-160.11,,,,,,,
1192.49,-0.00153,-163.68,,,,,,,
1192.5,-0.00156,-167.51,,,,,,,
1192.52,-0.00159,-170.88,,,,,,,
1192.54,-0.00161,-174.24,,,,,,,
1192.56,-0.00164,-177.62,,,,,,,
1192.57,-0.00167,-181.03,,,,,,,
1192.59,-0.00169,-184.35,,,,,,,
1192.61,-0.00172,-187.64,,,,,,,
1192.64,-0.00174,-190.76,,,,,,,
1192.66,-0.00177,-193.9,,,,,,,
1192.68,-0.00179,-196.7,,,,,,,
1192.71,-0.00182,-199.46,,,,,,,
1192.73,-0.00184,-202.45,,,,,,,
1192.77,-0.00187,-205.58,,,,,,,
1192.79,-0.0019,-208.65,,,,,,,
1192.82,-0.00192,-211.09,,,,,,,
1192.82,-0.00192,-211.45,,,,,,,
1192.85,-0.00195,-214.07,,,,,,,
1192.88,-0.00197,-216.99,,,,,,,
1192.9,-0.002,-219.77,,,,,,,
1192.93,-0.00202,-222.27,,,,,,,
1192.95,-0.00205,-224.67,,,,,,,
1192.97,-0.00207,-227.03,,,,,,,
1192.99,-0.0021,-229.12,,,,,,,
1193.02,-0.00212,-231.44,,,,,,,
1193.04,-0.00215,-233.49,,,,,,,
1193.07,-0.00218,-235.52,,,,,,,
1193.09,-0.0022,-237.37,,,,,,,
1193.12,-0.00223,-239.48,,,,,,,
1193.15,-0.00225,-241.86,,,,,,,
1193.17,-0.00228,-236.03,,,,,,,
1193.18,-0.00231,-236.29,,,,,,,
1193.18,-0.00234,-236.69,,,,,,,
1193.19,-0.00236,-237.67,,,,,,,
1193.21,-0.0024,-228.75,,,,,,,
1193.21,-0.00244,-229.0,,,,,,,
1193.21,-0.00246,-228.91,,,,,,,
1193.21,-0.00249,-228.99,,,,,,,
1193.21,-0.00252,-229.09,,,,,,,
1193.21,-0.00255,-229.08,,,,,,,
1193.21,-0.00258,-229.15,,,,,,,
1193.21,-0.00262,-229.24,,,,,,,
1193.22,-0.00265,-229.4,,,,,,,
1193.23,-0.00263,-229.63,,,,,,,
1193.3,-0.0026,-218.2,,,,,,,
1193.33,-0.00257,-213.37,,,,,,,
1193.35,-0.00255,-209.25,,,,,,,
1193.5,-0.00257,-208.59,,,,,,,
1193.53,-0.0026,-211.69,,,,,,,
1193.55,-0.00262,-214.9,,,,,,,
1193.57,-0.00265,-218.08,,,,,,,
1193.6,-0.00268,-221.1,,,,,,,
1193.62,-0.0027,-224.06,,,,,,,
1193.64,-0.00273,-226.78,,,,,,,
1193.66,-0.00275,-229.51,,,,,,,
1193.68,-0.00278,-232.09,,,,,,,
1193.7,-0.0028,-234.73,,,,,,,
1193.72,-0.00283,-236.98,,,,,,,
1193.75,-0.00285,-239.33,,,,,,,
1193.77,-0.00288,-241.58,,,,,,,
1193.8,-0.00291,-243.41,,,,,,,
1193.82,-0.00292,-243.77,,,,,,,
1193.85,-0.00293,-243.04,,,,,,,
1193.93,-0.00291,-233.01,,,,,,,
1193.96,-0.00288,-227.58,,,,,,,
1193.98,-0.00285,-222.39,,,,,,,
1194.0,-0.00283,-217.94,,,,,,,
1194.02,-0.0028,-213.45,,,,,,,
1194.04,-0.00278,-208.91,,,,,,,
1194.06,-0.00275,-204.44,,,,,,,
1194.08,-0.00273,-200.19,,,,,,,
1194.1,-0.0027,-195.89,,,,,,,
1194.12,-0.00267,-191.45,,,,,,,
1194.15,-0.00265,-187.48,,,,,,,
1194.17,-0.00262,-183.46,,,,,,,
1194.2,-0.0026,-179.31,,,,,,,
1194.22,-0.00257,-175.4,,,,,,,
1194.25,-0.00255,-171.2,,,,,,,
1194.28,-0.00252,-167.33,,,,,,,
1194.31,-0.0025,-163.08,,,,,,,
1194.34,-0.00247,-158.74,,,,,,,
1194.36,-0.00244,-155.23,,,,,,,
1194.39,-0.00242,-151.56,,,,,,,
1194.42,-0.00239,-147.52,,,,,,,
1194.44,-0.00237,-143.55,,,,,,,
1194.47,-0.00234,-139.59,,,,,,,
1194.5,-0.00232,-135.63,,,,,,,
1194.53,-0.00229,-131.61,,,,,,,
1194.56,-0.00227,-127.49,,,,,,,
1194.58,-0.00224,-124.0,,,,,,,
1194.61,-0.00221,-120.22,,,,,,,
1194.63,-0.00219,-116.81,,,,,,,
1194.66,-0.00216,-113.01,,,,,,,
1194.68,-0.00214,-109.59,,,,,,,
1194.71,-0.00211,-105.81,,,,,,,
1194.74,-0.00209,-102.14,,,,,,,
1194.76,-0.00206,-98.62,,,,,,,
1194.79,-0.00204,-94.99,,,,,,,
1194.82,-0.00201,-91.23,,,,,,,
1194.82,-0.00201,-90.98,,,,,,,
1194.85,-0.00199,-87.51,,,,,,,
1194.87,-0.00196,-83.77,,,,,,,
1194.9,-0.00193,-79.92,,,,,,,
1194.93,-0.00191,-76.5,,,,,,,
1194.96,-0.00188,-72.68,,,,,,,
1194.99,-0.00186,-68.68,,,,,,,
1195.01,-0.00183,-65.12,,,,,,,
1195.04,-0.00181,-60.98,,,,,,,
1195.08,-0.00178,-56.66,,,,,,,
1195.1,-0.00176,-52.88,,,,,,,
1195.13,-0.00173,-49.11,,,,,,,
1195.16,-0.0017,-44.67,,,,,,,
1195.19,-0.00168,-40.91,,,,,,,
1195.21,-0.00165,-36.92,,,,,,,
1195.24,-0.00163,-33.28,,,,,,,
1195.27,-0.0016,-29.17,,,,,,,
1195.29,-0.00158,-25.38,,,,,,,
1195.32,-0.00155,-21.62,,,,,,,
1195.35,-0.00153,-17.84,,,,,,,
1195.38,-0.0015,-14.1,,,,,,,
1195.4,-0.00148,-10.39,,,,,,,
1195.43,-0.00145,-6.72,,,,,,,
1195.46,-0.00142,-2.94,,,,,,,
1195.48,-0.0014,0.45,,,,,,,
1195.51,-0.00137,3.83,,,,,,,
1195.53,-0.00135,6.93,,,,,,,
1195.56,-0.00132,10.52,,,,,,,
1195.59,-0.0013,13.84,,,,,,,
1195.61,-0.00127,17.2,,,,,,,
1195.64,-0.00124,20.74,,,,,,,
1195.67,-0.00122,24.34,,,,,,,
1195.71,-0.00119,27.66,,,,,,,
1195.75,-0.00117,30.78,,,,,,,
1195.8,-0.00114,34.1,,,,,,,
1195.82,-0.00113,35.58,,,,,,,
1195.84,-0.00112,37.44,,,,,,,
1195.87,-0.00109,40.84,,,,,,,
1195.9,-0.00107,44.0,,,,,,,
1195.93,-0.00104,47.89,,,,,,,
1195.95,-0.00101,50.95,,,,,,,
1195.96,-0.00099,54.24,,,,,,,
1195.99,-0.00096,57.49,,,,,,,
1196.01,-0.00094,60.57,,,,,,,
1196.03,-0.00091,63.57,,,,,,,
1196.06,-0.00089,66.47,,,,,,,
1196.09,-0.00086,69.16,,,,,,,
1196.12,-0.00084,71.86,,,,,,,
1196.16,-0.00081,74.65,,,,,,,
1196.19,-0.00078,77.59,,,,,,,
1196.22,-0.00076,80.48,,,,,,,
1196.25,-0.00073,83.23,,,,,,,
1196.28,-0.00071,85.97,,,,,,,
1196.31,-0.00068,88.73,,,,,,,
1196.34,-0.00066,91.37,,,,,,,
1196.37,-0.00063,94.17,,,,,,,
1196.39,-0.00061,97.13,,,,,,,
1196.42,-0.00058,100.41,,,,,,,
1196.44,-0.00056,103.69,,,,,,,
1196.46,-0.00053,106.93,,,,,,,
1196.48,-0.0005,110.18,,,,,,,
1196.49,-0.00048,113.45,,,,,,,
1196.51,-0.00045,116.43,,,,,,,
1196.53,-0.00043,119.49,,,,,,,
1196.54,-0.0004,122.35,,,,,,,
1196.56,-0.00037,125.42,,,,,,,
1196.57,-0.00035,128.04,,,,,,,
1196.59,-0.00032,130.52,,,,,,,
1196.61,-0.0003,133.23,,,,,,,
1196.62,-0.00027,135.6,,,,,,,
1196.65,-0.00025,138.3,,,,,,,
1196.67,-0.00022,140.73,,,,,,,
1196.69,-0.0002,143.16,,,,,,,
1196.71,-0.00017,145.44,,,,,,,
1196.74,-0.00014,147.77,,,,,,,
2385.63,-0.00011,195.65,,,,,,,
2385.65,-9e-05,197.29,,,,,,,
2385.68,-6e-05,198.81,,,,,,,
2385.7,-4e-05,200.47,,,,,,,
2385.73,-1e-05,201.99,,,,,,,
2385.75,1e-05,203.5,,,,,,,
2385.76,4e-05,200.69,,,,,,,
2385.76,7e-05,200.86,,,,,,,
2385.77,0.00011,200.97,,,,,,,
2385.77,0.00015,201.08,,,,,,,
2385.77,0.0002,201.17,,,,,,,
2385.77,0.00023,201.31,,,,,,,
2385.78,0.00026,201.45,,,,,,,
2385.82,0.00026,199.81,,,,,,,
2385.89,0.00024,190.28,,,,,,,
2386.04,0.00026,187.24,,,,,,,
2386.07,0.00029,189.46,,,,,,,
2386.09,0.00031,191.89,,,,,,,
2386.11,0.00034,194.34,,,,,,,
2386.13,0.00036,196.8,,,,,,,
2386.15,0.00039,199.23,,,,,,,
2386.17,0.00042,201.41,,,,,,,
2386.2,0.00044,203.56,,,,,,,
2386.22,0.00047,205.56,,,,,,,
2386.24,0.00049,207.45,,,,,,,
2386.26,0.00052,209.39,,,,,,,
2386.29,0.00054,211.35,,,,,,,
2386.32,0.00057,213.25,,,,,,,
2386.35,0.00059,215.1,,,,,,,
2386.37,0.00062,216.92,,,,,,,
2386.4,0.00064,218.84,,,,,,,
2386.43,0.00067,220.92,,,,,,,
2386.46,0.0007,222.78,,,,,,,
2386.48,0.00072,224.65,,,,,,,
2386.49,0.00076,215.51,,,,,,,
2386.5,0.00082,215.74,,,,,,,
2386.5,0.00086,215.93,,,,,,,
2386.5,0.00091,215.94,,,,,,,
2386.5,0.00097,215.98,,,,,,,
2386.5,0.00104,216.08,,,,,,,
2386.5,0.0011,216.08,,,,,,,
2386.5,0.00117,216.15,,,,,,,
2386.5,0.00122,216.27,,,,,,,
2386.5,0.00128,216.38,,,,,,,
2386.5,0.00132,216.51,,,,,,,
2386.51,0.00135,216.53,,,,,,,
2386.51,0.00138,216.67,,,,,,,
2386.51,0.00135,216.88,,,,,,,
2386.51,0.00133,216.87,,,,,,,
2386.55,0.0013,206.84,,,,,,,
2386.56,0.00127,202.23,,,,,,,
2386.57,0.00125,197.29,,,,,,,
2386.58,0.00122,193.1,,,,,,,
2386.59,0.00119,188.55,,,,,,,
2386.6,0.00116,183.79,,,,,,,
2386.61,0.00114,179.89,,,,,,,
2386.62,0.00111,175.43,,,,,,,
2386.62,0.00109,171.48,,,,,,,
2386.63,0.00106,167.65,,,,,,,
2386.64,0.00103,163.79,,,,,,,
2386.65,0.00101,160.11,,,,,,,
2386.67,0.00098,156.4,,,,,,,
2386.68,0.00096,153.06,,,,,,,
2386.7,0.00093,149.88,,,,,,,
2386.79,0.00096,154.44,,,,,,,
2386.81,0.00098,158.22,,,,,,,
2386.82,0.001,160.74,,,,,,,
2386.82,0.00101,161.76,,,,,,,
2386.84,0.00103,164.8,,,,,,,
2386.86,0.00106,168.31,,,,,,,
2386.87,0.00109,171.47,,,,,,,
2386.89,0.00111,174.67,,,,,,,
2386.91,0.00114,177.9,,,,,,,
2386.92,0.00116,180.97,,,,,,,
2386.94,0.00119,183.99,,,,,,,
2386.97,0.00121,187.0,,,,,,,
2386.99,0.00124,189.9,,,,,,,
2387.02,0.00126,192.69,,,,,,,
2387.04,0.00129,195.35,,,,,,,
2387.07,0.00132,198.11,,,,,,,
2387.1,0.00134,200.76,,,,,,,
2387.13,0.00137,203.28,,,,,,,
2387.15,0.00139,205.8,,,,,,,
2387.18,0.00142,207.99,,,,,,,
2387.2,0.00144,210.43,,,,,,,
2387.23,0.00147,212.73,,,,,,,
2387.25,0.00149,214.92,,,,,,,
2387.28,0.00152,217.02,,,,,,,
2387.3,0.00154,219.22,,,,,,,
2387.33,0.00157,221.27,,,,,,,
2387.35,0.0016,223.26,,,,,,,
2387.38,0.00162,225.25,,,,,,,
2387.4,0.00165,227.07,,,,,,,
2387.43,0.00167,228.89,,,,,,,
2387.45,0.0017,230.73,,,,,,,
2387.48,0.00172,232.44,,,,,,,
2387.5,0.00175,234.25,,,,,,,
2387.52,0.00178,221.69,,,,,,,
2387.52,0.00183,221.5,,,,,,,
2387.52,0.00186,221.74,,,,,,,
2387.52,0.00191,221.89,,,,,,,
2387.52,0.00196,221.84,,,,,,,
2387.52,0.00202,221.93,,,,,,,
2387.52,0.00208,221.97,,,,,,,
2387.52,0.00213,221.93,,,,,,,
2387.53,0.00219,222.05,,,,,,,
2387.53,0.00223,222.16,,,,,,,
2387.53,0.00227,222.28,,,,,,,
2387.53,0.0023,222.42,,,,,,,
2387.53,0.00233,222.4,,,,,,,
2387.54,0.0023,222.68,,,,,,,
2387.54,0.00227,222.78,,,,,,,
2387.58,0.00225,212.16,,,,,,,
2387.59,0.00222,207.25,,,,,,,
2387.61,0.00219,202.52,,,,,,,
2387.61,0.00217,198.54,,,,,,,
2387.62,0.00214,193.87,,,,,,,
2387.63,0.00212,190.17,,,,,,,
2387.64,0.00209,186.16,,,,,,,
2387.65,0.00206,182.27,,,,,,,
2387.67,0.00204,178.7,,,,,,,
2387.68,0.00201,174.88,,,,,,,
2387.69,0.00199,171.47,,,,,,,
2387.71,0.00196,168.36,,,,,,,
2387.81,0.00199,172.99,,,,,,,
2387.82,0.002,174.29,,,,,,,
2387.83,0.00201,176.44,,,,,,,
2387.85,0.00204,179.9,,,,,,,
2387.87,0.00206,183.28,,,,,,,
2387.88,0.00209,186.61,,,,,,,
2387.9,0.00212,189.73,,,,,,,
2387.92,0.00214,192.95,,,,,,,
2387.93,0.00217,195.75,,,,,,,
2387.95,0.00219,198.64,,,,,,,
2387.97,0.00222,201.61,,,,,,,
2387.99,0.00224,204.16,,,,,,,
2388.01,0.00227,206.77,,,,,,,
2388.04,0.00229,209.43,,,,,,,
2388.07,0.00232,211.84,,,,,,,
2388.09,0.00235,214.15,,,,,,,
2388.12,0.00237,216.58,,,,,,,
2388.15,0.0024,218.84,,,,,,,
2388.18,0.00242,221.05,,,,,,,
2388.21,0.00245,223.42,,,,,,,
2388.23,0.00247,225.74,,,,,,,
2388.26,0.0025,227.89,,,,,,,
2388.28,0.00252,230.1,,,,,,,
2388.31,0.00255,232.27,,,,,,,
2388.33,0.00257,234.34,,,,,,,
2388.36,0.0026,236.48,,,,,,,
2388.38,0.00263,238.49,,,,,,,
2388.41,0.00265,240.35,,,,,,,
2388.43,0.00268,242.25,,,,,,,
2388.44,0.00271,236.8,,,,,,,
2388.44,0.00277,237.01,,,,,,,
2388.44,0.00281,237.12,,,,,,,
2388.44,0.00285,237.16,,,,,,,
2388.44,0.0029,237.25,,,,,,,
2388.45,0.00296,237.32,,,,,,,
2388.45,0.00301,237.34,,,,,,,
2388.45,0.00306,237.38,,,,,,,
2388.45,0.00311,237.46,,,,,,,
2388.45,0.00315,237.6,,,,,,,
2388.45,0.00318,237.73,,,,,,,
2388.45,0.00322,237.74,,,,,,,
2388.46,0.00318,238.02,,,,,,,
2388.46,0.00316,237.98,,,,,,,
2388.47,0.00318,237.14,,,,,,,
2388.5,0.00316,229.21,,,,,,,
2388.51,0.00313,224.3,,,,,,,
2388.53,0.0031,219.34,,,,,,,
2388.54,0.00308,214.8,,,,,,,
2388.55,0.00305,210.31,,,,,,,
2388.56,0.00302,206.43,,,,,,,
2388.57,0.003,202.38,,,,,,,
2388.58,0.00297,198.26,,,,,,,
2388.59,0.00294,194.12,,,,,,,
2388.61,0.00292,190.36,,,,,,,
2388.63,0.00289,186.69,,,,,,,
2388.81,0.00287,178.31,,,,,,,
2388.82,0.00286,177.39,,,,,,,
2388.85,0.00284,173.25,,,,,,,
2388.88,0.00282,168.9,,,,,,,
2388.91,0.00279,164.82,,,,,,,
2388.93,0.00277,160.71,,,,,,,
2388.95,0.00274,156.83,,,,,,,
2388.98,0.00272,152.77,,,,,,,
2389.0,0.00269,149.08,,,,,,,
2389.03,0.00267,145.1,,,,,,,
2389.05,0.00264,141.3,,,,,,,
2389.08,0.00261,137.49,,,,,,,
2389.1,0.00259,133.66,,,,,,,
2389.13,0.00256,129.97,,,,,,,
2389.15,0.00254,126.49,,,,,,,
2389.18,0.00251,122.9,,,,,,,
2389.21,0.00249,119.05,,,,,,,
2389.23,0.00246,115.7,,,,,,,
2389.26,0.00243,111.86,,,,,,,
2389.29,0.00241,107.83,,,,,,,
2389.32,0.00238,104.09,,,,,,,
2389.35,0.00236,100.44,,,,,,,
2389.37,0.00233,96.76,,,,,,,
2389.4,0.00231,93.28,,,,,,,
2389.43,0.00228,89.61,,,,,,,
2389.46,0.00226,85.91,,,,,,,
2389.48,0.00223,82.52,,,,,,,
2389.51,0.00221,79.11,,,,,,,
2389.54,0.00218,75.53,,,,,,,
2389.56,0.00215,72.17,,,,,,,
2389.59,0.00213,69.02,,,,,,,
2389.61,0.0021,65.75,,,,,,,
2389.64,0.00208,62.37,,,,,,,
2389.66,0.00205,59.17,,,,,,,
2389.69,0.00203,55.78,,,,,,,
2389.72,0.002,52.31,,,,,,,
2389.75,0.00198,49.03,,,,,,,
2389.77,0.00195,45.91,,,,,,,
2389.8,0.00192,42.72,,,,,,,
2389.82,0.00191,40.54,,,,,,,
2389.83,0.0019,39.6,,,,,,,
2389.85,0.00187,36.65,,,,,,,
2389.88,0.00185,33.49,,,,,,,
2389.91,0.00182,30.57,,,,,,,
2389.93,0.0018,27.41,,,,,,,
2389.96,0.00177,24.26,,,,,,,
2389.99,0.00175,21.24,,,,,,,
2390.02,0.00172,17.78,,,,,,,
2390.04,0.0017,14.7,,,,,,,
2390.07,0.00167,11.27,,,,,,,
2390.11,0.00165,7.2,,,,,,,
2390.14,0.00162,3.39,,,,,,,
2390.17,0.00159,0.09,,,,,,,
2390.19,0.00157,-2.87,,,,,,,
2390.21,0.00154,-5.95,,,,,,,
2390.24,0.00152,-9.06,,,,,,,
2390.26,0.00149,-11.8,,,,,,,
2390.29,0.00147,-14.98,,,,,,,
2390.32,0.00144,-18.03,,,,,,,
2390.36,0.00142,-20.0,,,,,,,
2390.42,0.00139,-21.29,,,,,,,
2390.51,0.00137,-23.26,,,,,,,
2390.56,0.00134,-26.95,,,,,,,
2390.6,0.00131,-30.1,,,,,,,
2390.63,0.00129,-33.19,,,,,,,
2390.66,0.00126,-36.17,,,,,,,
2390.68,0.00124,-38.84,,,,,,,
2390.71,0.00121,-41.87,,,,,,,
2390.73,0.00119,-45.21,,,,,,,
2390.75,0.00116,-48.46,,,,,,,
2390.77,0.00114,-52.35,,,,,,,
2390.79,0.00111,-55.68,,,,,,,
2390.8,0.00109,-58.66,,,,,,,
2390.81,0.00106,-61.99,,,,,,,
2390.82,0.00105,-63.45,,,,,,,
2390.83,0.00104,-65.25,,,,,,,
2390.84,0.00101,-68.31,,,,,,,
2390.85,0.00098,-71.38,,,,,,,
2390.87,0.00096,-74.36,,,,,,,
2390.88,0.00093,-77.32,,,,,,,
2390.9,0.0009,-80.19,,,,,,,
2390.92,0.00088,-83.52,,,,,,,
2390.93,0.00085,-86.39,,,,,,,
2390.95,0.00083,-89.01,,,,,,,
2390.96,0.0008,-91.57,,,,,,,
2390.98,0.00077,-94.59,,,,,,,
2391.0,0.00075,-97.26,,,,,,,
2391.02,0.00072,-99.79,,,,,,,
2391.05,0.0007,-102.28,,,,,,,
2391.07,0.00067,-104.65,,,,,,,
2391.1,0.00065,-107.59,,,,,,,
2391.12,0.00062,-110.15,,,,,,,
2391.15,0.0006,-112.27,,,,,,,
2391.17,0.00057,-114.34,,,,,,,
2391.19,0.00055,-116.67,,,,,,,
2391.22,0.00052,-119.28,,,,,,,
2391.25,0.00049,-121.43,,,,,,,
2391.27,0.00047,-123.68,,,,,,,
2391.3,0.00044,-125.94,,,,,,,
2391.32,0.00042,-128.22,,,,,,,
2391.35,0.00039,-130.22,,,,,,,
2391.37,0.00037,-132.41,,,,,,,
2391.4,0.00034,-134.64,,,,,,,
2391.43,0.00032,-136.83,,,,,,,
2391.45,0.00029,-138.65,,,,,,,
2391.48,0.00026,-140.86,,,,,,,
2391.5,0.00024,-143.09,,,,,,,
2391.53,0.00021,-145.24,,,,,,,
2391.55,0.00019,-146.94,,,,,,,
2391.58,0.00016,-149.0,,,,,,,
2391.61,0.00014,-151.22,,,,,,,
2391.63,0.00011,-153.22,,,,,,,
2391.66,9e-05,-155.15,,,,,,,
2391.69,6e-05,-157.33,,,,,,,
2391.71,3e-05,-159.49,,,,,,,
2391.74,1e-05,-161.73,,,,,,,
2391.77,-2e-05,-164.02,,,,,,,
2391.8,-4e-05,-166.79,,,,,,,
2391.82,-6e-05,-168.06,,,,,,,
2391.83,-7e-05,-169.09,,,,,,,
2391.86,-9e-05,-171.46,,,,,,,
2391.89,-0.00012,-174.26,,,,,,,
2391.91,-0.00014,-176.68,,,,,,,
2391.94,-0.00017,-178.84,,,,,,,
2391.96,-0.00019,-181.29,,,,,,,
2391.99,-0.00022,-183.51,,,,,,,
2392.01,-0.00025,-185.45,,,,,,,
2392.03,-0.00027,-187.64,,,,,,,
2392.06,-0.0003,-189.88,,,,,,,
2392.09,-0.00032,-192.19,,,,,,,
2392.11,-0.00035,-194.34,,,,,,,
2392.14,-0.00037,-196.32,,,,,,,
2392.16,-0.0004,-198.31,,,,,,,
2392.18,-0.00042,-200.23,,,,,,,
2392.21,-0.00045,-201.62,,,,,,,
2392.22,-0.00048,-202.32,,,,,,,
2392.25,-0.0005,-203.95,,,,,,,
2392.25,-0.00053,-202.32,,,,,,,
2392.26,-0.00056,-202.46,,,,,,,
2392.26,-0.0006,-202.64,,,,,,,
2392.26,-0.00065,-202.72,,,,,,,
2392.26,-0.00069,-202.85,,,,,,,
2392.26,-0.00073,-203.01,,,,,,,
2392.31,-0.00075,-201.7,,,,,,,
2392.37,-0.00073,-193.63,,,,,,,
2392.55,-0.00075,-188.51,,,,,,,
2392.57,-0.00078,-190.86,,,,,,,
2392.6,-0.0008,-193.32,,,,,,,
2392.62,-0.00083,-195.93,,,,,,,
2392.64,-0.00085,-198.63,,,,,,,
2392.67,-0.00088,-201.17,,,,,,,
2392.69,-0.00091,-203.93,,,,,,,
2392.71,-0.00093,-206.18,,,,,,,
2392.74,-0.00096,-208.61,,,,,,,
2392.76,-0.00098,-211.11,,,,,,,
2392.79,-0.00101,-213.28,,,,,,,
2392.81,-0.00103,-215.41,,,,,,,
2392.82,-0.00104,-216.15,,,,,,,
2392.83,-0.00106,-217.47,,,,,,,
2392.86,-0.00108,-219.36,,,,,,,
2392.88,-0.00111,-221.04,,,,,,,
2392.9,-0.00114,-222.77,,,,,,,
2392.92,-0.00116,-224.34,,,,,,,
2392.93,-0.00119,-216.08,,,,,,,
2392.93,-0.00121,-216.44,,,,,,,
2392.94,-0.00125,-216.51,,,,,,,
2392.94,-0.00129,-216.57,,,,,,,
2392.94,-0.00134,-216.72,,,,,,,
2392.94,-0.00137,-216.92,,,,,,,
2392.94,-0.0014,-217.08,,,,,,,
2393.22,-0.00142,-207.65,,,,,,,
2393.25,-0.00145,-210.22,,,,,,,
2393.27,-0.00147,-212.91,,,,,,,
2393.29,-0.0015,-215.46,,,,,,,
2393.31,-0.00152,-217.82,,,,,,,
2393.33,-0.00155,-220.25,,,,,,,
2393.35,-0.00157,-222.37,,,,,,,
2393.37,-0.0016,-224.61,,,,,,,
2393.4,-0.00162,-226.84,,,,,,,
2393.41,-0.00165,-221.5,,,,,,,
2393.41,-0.00168,-221.86,,,,,,,
2393.41,-0.00173,-222.06,,,,,,,
2393.41,-0.00176,-222.1,,,,,,,
2393.41,-0.00179,-222.12,,,,,,,
2393.41,-0.00181,-222.22,,,,,,,
2393.41,-0.00184,-222.35,,,,,,,
2393.42,-0.00188,-222.59,,,,,,,
2393.42,-0.00191,-222.66,,,,,,,
2393.52,-0.00189,-213.68,,,,,,,
2393.55,-0.00186,-208.68,,,,,,,
2393.71,-0.00189,-210.69,,,,,,,
2393.73,-0.00191,-213.65,,,,,,,
2393.75,-0.00194,-216.17,,,,,,,
2393.76,-0.00196,-218.7,,,,,,,
2393.78,-0.00199,-221.14,,,,,,,
2393.8,-0.00201,-223.5,,,,,,,
2393.82,-0.00204,-225.95,,,,,,,
2393.82,-0.00204,-226.07,,,,,,,
2393.84,-0.00207,-228.21,,,,,,,
2393.86,-0.00209,-230.5,,,,,,,
2393.88,-0.00212,-232.19,,,,,,,
2393.9,-0.00214,-234.16,,,,,,,
2393.92,-0.00217,-235.94,,,,,,,
2393.95,-0.00219,-237.42,,,,,,,
2393.99,-0.00222,-237.43,,,,,,,
2394.01,-0.00225,-231.26,,,,,,,
2394.01,-0.00227,-231.39,,,,,,,
2394.02,-0.00233,-231.53,,,,,,,
2394.02,-0.00237,-231.69,,,,,,,
2394.02,-0.00242,-231.78,,,,,,,
2394.02,-0.00248,-231.85,,,,,,,
2394.02,-0.00255,-231.88,,,,,,,
2394.02,-0.00261,-231.83,,,,,,,
2394.02,-0.00267,-231.89,,,,,,,
2394.02,-0.00273,-232.02,,,,,,,
2394.02,-0.00278,-232.15,,,,,,,
2394.02,-0.00282,-232.28,,,,,,,
2394.03,-0.00285,-232.26,,,,,,,
2394.03,-0.00288,-232.33,,,,,,,
2394.03,-0.00285,-232.47,,,,,,,
2394.03,-0.00282,-232.48,,,,,,,
2394.04,-0.00279,-232.5,,,,,,,
2394.04,-0.00281,-231.54,,,,,,,
2394.07,-0.00279,-222.62,,,,,,,
2394.08,-0.00276,-217.45,,,,,,,
2394.09,-0.00274,-213.02,,,,,,,
2394.1,-0.00271,-208.07,,,,,,,
2394.11,-0.00268,-203.77,,,,,,,
2394.12,-0.00266,-199.75,,,,,,,
2394.13,-0.00263,-195.37,,,,,,,
2394.14,-0.0026,-191.15,,,,,,,
2394.14,-0.00258,-187.63,,,,,,,
2394.15,-0.00255,-183.48,,,,,,,
2394.16,-0.00252,-180.08,,,,,,,
2394.17,-0.0025,-176.56,,,,,,,
2394.19,-0.00247,-173.06,,,,,,,
2394.2,-0.00244,-169.54,,,,,,,
2394.32,-0.00247,-174.96,,,,,,,
2394.33,-0.0025,-178.1,,,,,,,
2394.35,-0.00252,-181.4,,,,,,,
2394.37,-0.00255,-184.72,,,,,,,
2394.38,-0.00257,-187.66,,,,,,,
2394.39,-0.0026,-190.65,,,,,,,
2394.41,-0.00262,-193.3,,,,,,,
2394.43,-0.00265,-196.24,,,,,,,
2394.44,-0.00268,-198.8,,,,,,,
2394.46,-0.0027,-201.36,,,,,,,
2394.48,-0.00273,-204.13,,,,,,,
2394.5,-0.00275,-206.66,,,,,,,
2394.53,-0.00278,-208.99,,,,,,,
2394.56,-0.0028,-211.34,,,,,,,
2394.59,-0.00283,-213.58,,,,,,,
2394.61,-0.00285,-215.74,,,,,,,
2394.64,-0.00288,-217.95,,,,,,,
2394.67,-0.0029,-219.98,,,,,,,
2394.72,-0.00293,-220.17,,,,,,,
2394.8,-0.0029,-211.19,,,,,,,
2394.82,-0.00289,-208.33,,,,,,,
2394.83,-0.00288,-205.98,,,,,,,
2394.86,-0.00285,-201.05,,,,,,,
2394.88,-0.00283,-196.43,,,,,,,
2394.9,-0.0028,-191.79,,,,,,,
2394.92,-0.00278,-187.68,,,,,,,
2394.94,-0.00275,-183.59,,,,,,,
2394.96,-0.00272,-179.4,,,,,,,
2394.98,-0.0027,-175.22,,,,,,,
2395.0,-0.00267,-171.19,,,,,,,
2395.03,-0.00265,-167.41,,,,,,,
2395.05,-0.00262,-163.23,,,,,,,
2395.08,-0.0026,-159.28,,,,,,,
2395.11,-0.00257,-155.1,,,,,,,
2395.14,-0.00255,-150.4,,,,,,,
2395.17,-0.00252,-145.66,,,,,,,
2395.2,-0.0025,-141.76,,,,,,,
2395.23,-0.00247,-137.64,,,,,,,
2395.25,-0.00244,-133.47,,,,,,,
2395.28,-0.00242,-129.99,,,,,,,
2395.3,-0.00239,-126.56,,,,,,,
2395.33,-0.00237,-122.7,,,,,,,
2395.35,-0.00234,-118.71,,,,,,,
2395.38,-0.00232,-114.99,,,,,,,
2395.41,-0.00229,-111.16,,,,,,,
2395.43,-0.00227,-107.22,,,,,,,
2395.46,-0.00224,-103.42,,,,,,,
2395.49,-0.00222,-99.51,,,,,,,
2395.52,-0.00219,-95.71,,,,,,,
2395.54,-0.00216,-91.95,,,,,,,
2395.57,-0.00214,-88.45,,,,,,,
2395.6,-0.00211,-84.7,,,,,,,
2395.62,-0.00209,-80.98,,,,,,,
2395.65,-0.00206,-77.52,,,,,,,
2395.67,-0.00204,-73.95,,,,,,,
2395.7,-0.00201,-70.4,,,,,,,
2395.73,-0.00199,-67.05,,,,,,,
2395.75,-0.00196,-63.44,,,,,,,
2395.78,-0.00194,-59.6,,,,,,,
2395.81,-0.00191,-55.81,,,,,,,
2395.82,-0.0019,-54.87,,,,,,,
2395.84,-0.00188,-52.14,,,,,,,
2395.87,-0.00186,-48.47,,,,,,,
2395.89,-0.00183,-45.26,,,,,,,
2395.92,-0.00181,-42.07,,,,,,,
2395.94,-0.00178,-38.68,,,,,,,
2395.97,-0.00176,-35.15,,,,,,,
2396.0,-0.00173,-31.71,,,,,,,
2396.03,-0.00171,-28.26,,,,,,,
2396.05,-0.00168,-25.06,,,,,,,
2396.08,-0.00166,-21.85,,,,,,,
2396.1,-0.00163,-18.56,,,,,,,
2396.13,-0.00161,-15.41,,,,,,,
2396.16,-0.00158,-11.97,,,,,,,
2396.19,-0.00155,-8.65,,,,,,,
2396.22,-0.00153,-5.03,,,,,,,
2396.24,-0.0015,-1.72,,,,,,,
2396.27,-0.00148,1.87,,,,,,,
2396.3,-0.00145,5.17,,,,,,,
2396.33,-0.00143,8.79,,,,,,,
2396.36,-0.0014,12.4,,,,,,,
2396.39,-0.00138,15.9,,,,,,,
2396.42,-0.00135,19.47,,,,,,,
2396.44,-0.00132,22.86,,,,,,,
2396.47,-0.0013,26.13,,,,,,,
2396.5,-0.00127,28.69,,,,,,,
2396.55,-0.00125,31.53,,,,,,,
2396.59,-0.00122,34.84,,,,,,,
2396.63,-0.0012,38.19,,,,,,,
2396.66,-0.00117,41.85,,,,,,,
2396.69,-0.00115,45.46,,,,,,,
2396.71,-0.00112,48.46,,,,,,,
2396.72,-0.00109,51.19,,,,,,,
2396.75,-0.00107,54.37,,,,,,,
2396.77,-0.00104,57.46,,,,,,,
2396.79,-0.00102,60.21,,,,,,,
2396.82,-0.00099,62.9,,,,,,,
2396.82,-0.00099,63.09,,,,,,,
2396.85,-0.00097,65.91,,,,,,,
2396.88,-0.00094,68.65,,,,,,,
2396.92,-0.00092,71.5,,,,,,,
2396.96,-0.00089,74.97,,,,,,,
2396.99,-0.00086,77.82,,,,,,,
2397.02,-0.00084,80.78,,,,,,,
2397.05,-0.00081,83.45,,,,,,,
2397.08,-0.00079,86.44,,,,,,,
2397.11,-0.00076,89.61,,,,,,,
2397.14,-0.00074,92.56,,,,,,,
2397.16,-0.00071,95.38,,,,,,,
2397.19,-0.00069,98.29,,,,,,,
2397.21,-0.00066,101.57,,,,,,,
2397.23,-0.00063,104.66,,,,,,,
2397.25,-0.00061,107.7,,,,,,,
2397.27,-0.00058,110.98,,,,,,,
2397.28,-0.00056,113.88,,,,,,,
2397.3,-0.00053,116.97,,,,,,,
2397.32,-0.00051,119.83,,,,,,,
2397.33,-0.00048,122.88,,,,,,,
2397.35,-0.00045,125.75,,,,,,,
2397.37,-0.00043,128.49,,,,,,,
2397.38,-0.0004,131.37,,,,,,,
2397.4,-0.00038,134.14,,,,,,,
2397.42,-0.00035,136.79,,,,,,,
2397.44,-0.00033,139.5,,,,,,,
2397.47,-0.0003,142.12,,,,,,,
2397.49,-0.00027,144.54,,,,,,,
2397.51,-0.00025,147.11,,,,,,,
2397.54,-0.00022,149.58,,,,,,,
2397.56,-0.0002,151.88,,,,,,,
2397.58,-0.00017,154.28,,,,,,,
2397.61,-0.00015,156.36,,,,,,,
5988.26,-0.00012,149.67,,,,,,,
5988.28,-0.0001,151.8,,,,,,,
5988.31,-7e-05,153.95,,,,,,,
5988.33,-5e-05,156.06,,,,,,,
5988.36,-2e-05,157.99,,,,,,,
5988.39,0.0,160.06,,,,,,,
5988.41,3e-05,162.16,,,,,,,
5988.44,5e-05,164.31,,,,,,,
5988.47,8e-05,166.59,,,,,,,
5988.49,0.0001,168.79,,,,,,,
5988.52,0.00013,170.81,,,,,,,
5988.54,0.00015,172.8,,,,,,,
5988.57,0.00018,174.8,,,,,,,
5988.59,0.00021,176.78,,,,,,,
5988.62,0.00023,178.79,,,,,,,
5988.64,0.00026,180.64,,,,,,,
5988.67,0.00028,182.41,,,,,,,
5988.69,0.00031,184.26,,,,,,,
5988.71,0.00033,186.04,,,,,,,
5988.74,0.00036,187.84,,,,,,,
5988.76,0.00038,189.57,,,,,,,
5988.79,0.00041,191.19,,,,,,,
5988.82,0.00043,192.88,,,,,,,
5988.82,0.00044,193.16,,,,,,,
5988.84,0.00046,194.57,,,,,,,
5988.87,0.00048,196.19,,,,,,,
5988.89,0.00051,197.7,,,,,,,
5988.92,0.00054,199.32,,,,,,,
5988.94,0.00056,200.8,,,,,,,
5988.97,0.00059,202.32,,,,,,,
5988.99,0.00061,203.63,,,,,,,
5989.02,0.00064,205.04,,,,,,,
5989.04,0.00066,206.43,,,,,,,
5989.07,0.00069,207.89,,,,,,,
5989.1,0.00071,209.46,,,,,,,
5989.12,0.00074,211.07,,,,,,,
5989.15,0.00077,212.64,,,,,,,
5989.18,0.00079,208.69,,,,,,,
5989.18,0.00082,207.97,,,,,,,
5989.18,0.00086,208.16,,,,,,,
5989.18,0.00089,208.13,,,,,,,
5989.18,0.00092,208.21,,,,,,,
5989.19,0.00096,208.28,,,,,,,
5989.19,0.001,208.28,,,,,,,
5989.19,0.00103,208.35,,,,,,,
5989.19,0.00107,208.42,,,,,,,
5989.19,0.0011,208.5,,,,,,,
5989.19,0.00113,208.59,,,,,,,
5989.19,0.00117,208.66,,,,,,,
5989.25,0.00114,200.19,,,,,,,
5989.27,0.00111,195.03,,,,,,,
5989.29,0.00109,190.18,,,,,,,
5989.3,0.00106,185.84,,,,,,,
5989.32,0.00104,181.65,,,,,,,
5989.34,0.00101,177.31,,,,,,,
5989.48,0.00104,178.41,,,,,,,
5989.5,0.00106,181.39,,,,,,,
5989.52,0.00109,184.23,,,,,,,
5989.54,0.00112,187.18,,,,,,,
5989.56,0.00114,189.97,,,,,,,
5989.58,0.00117,192.68,,,,,,,
5989.6,0.00119,195.37,,,,,,,
5989.62,0.00122,197.85,,,,,,,
5989.64,0.00124,200.46,,,,,,,
5989.66,0.00127,202.91,,,,,,,
5989.69,0.00129,205.48,,,,,,,
5989.72,0.00132,207.82,,,,,,,
5989.74,0.00135,209.9,,,,,,,
5989.77,0.00137,212.08,,,,,,,
5989.79,0.0014,214.08,,,,,,,
5989.82,0.00142,215.95,,,,,,,
5989.82,0.00142,216.01,,,,,,,
5989.84,0.00145,217.91,,,,,,,
5989.87,0.00147,219.81,,,,,,,
5989.89,0.0015,221.52,,,,,,,
5989.92,0.00152,223.1,,,,,,,
5989.94,0.00155,224.59,,,,,,,
5989.96,0.00157,225.96,,,,,,,
5989.98,0.0016,227.09,,,,,,,
5990.0,0.00163,228.31,,,,,,,
5990.03,0.00165,219.48,,,,,,,
5990.03,0.00168,220.03,,,,,,,
5990.03,0.00173,220.33,,,,,,,
5990.03,0.00176,220.38,,,,,,,
5990.03,0.00179,220.35,,,,,,,
5990.03,0.00183,220.41,,,,,,,
5990.03,0.00188,220.39,,,,,,,
5990.04,0.00192,220.39,,,,,,,
5990.04,0.00195,220.47,,,,,,,
5990.04,0.00199,220.53,,,,,,,
5990.04,0.00201,220.65,,,,,,,
5990.04,0.00205,220.66,,,,,,,
5990.05,0.00202,220.91,,,,,,,
5990.11,0.00199,209.56,,,,,,,
5990.12,0.00197,204.69,,,,,,,
5990.14,0.00194,200.13,,,,,,,
5990.15,0.00192,195.93,,,,,,,
5990.17,0.00189,191.73,,,,,,,
5990.19,0.00186,187.38,,,,,,,
5990.22,0.00184,183.09,,,,,,,
5990.31,0.00186,185.09,,,,,,,
5990.33,0.00189,188.2,,,,,,,
5990.35,0.00192,191.26,,,,,,,
5990.37,0.00194,194.12,,,,,,,
5990.39,0.00197,197.17,,,,,,,
5990.41,0.00199,200.09,,,,,,,
5990.43,0.00202,202.74,,,,,,,
5990.45,0.00204,205.45,,,,,,,
5990.47,0.00207,208.05,,,,,,,
5990.49,0.0021,210.64,,,,,,,
5990.51,0.00212,212.96,,,,,,,
5990.54,0.00215,215.19,,,,,,,
5990.56,0.00217,217.37,,,,,,,
5990.59,0.0022,219.47,,,,,,,
5990.62,0.00222,221.48,,,,,,,
5990.64,0.00225,223.38,,,,,,,
5990.67,0.00227,225.29,,,,,,,
5990.7,0.0023,227.16,,,,,,,
5990.72,0.00233,228.94,,,,,,,
5990.75,0.00235,230.74,,,,,,,
5990.77,0.00238,232.54,,,,,,,
5990.8,0.0024,234.28,,,,,,,
5990.82,0.00243,235.85,,,,,,,
5990.82,0.00243,235.95,,,,,,,
5990.85,0.00245,237.71,,,,,,,
5990.87,0.00248,239.31,,,,,,,
5990.9,0.0025,240.81,,,,,,,
5990.92,0.00253,242.36,,,,,,,
5990.95,0.00255,238.82,,,,,,,
5990.95,0.00258,231.53,,,,,,,
5990.95,0.00264,231.3,,,,,,,
5990.96,0.00268,231.55,,,,,,,
5990.96,0.00274,231.71,,,,,,,
5990.96,0.00281,231.66,,,,,,,
5990.96,0.00289,231.72,,,,,,,
5990.96,0.00297,231.75,,,,,,,
5990.96,0.00305,231.69,,,,,,,
5990.96,0.00312,231.79,,,,,,,
5990.96,0.00319,231.87,,,,,,,
5990.96,0.00324,231.97,,,,,,,
5990.96,0.00329,232.08,,,,,,,
5990.96,0.00332,232.06,,,,,,,
5990.97,0.00335,232.21,,,,,,,
5990.97,0.00332,232.15,,,,,,,
5990.97,0.00329,232.25,,,,,,,
5990.98,0.00325,231.95,,,,,,,
5991.01,0.00323,218.61,,,,,,,
5991.02,0.0032,213.42,,,,,,,
5991.03,0.00317,208.93,,,,,,,
5991.03,0.00315,204.35,,,,,,,
5991.04,0.00312,199.87,,,,,,,
5991.05,0.00309,195.23,,,,,,,
5991.05,0.00307,191.27,,,,,,,
5991.06,0.00304,186.65,,,,,,,
5991.07,0.00301,182.85,,,,,,,
5991.07,0.00299,179.19,,,,,,,
5991.08,0.00296,174.98,,,,,,,
5991.09,0.00293,171.14,,,,,,,
5991.09,0.0029,167.58,,,,,,,
5991.1,0.00288,163.62,,,,,,,
5991.11,0.00285,160.06,,,,,,,
5991.12,0.00282,156.62,,,,,,,
5991.13,0.0028,153.22,,,,,,,
5991.14,0.00277,149.76,,,,,,,
5991.16,0.00275,146.81,,,,,,,
5991.25,0.00277,152.08,,,,,,,
5991.26,0.0028,155.92,,,,,,,
5991.28,0.00282,159.39,,,,,,,
5991.29,0.00285,162.68,,,,,,,
5991.31,0.00288,166.03,,,,,,,
5991.33,0.0029,168.84,,,,,,,
5991.35,0.00293,171.23,,,,,,,
5991.47,0.0029,162.47,,,,,,,
5991.49,0.00288,158.56,,,,,,,
5991.51,0.00285,154.35,,,,,,,
5991.53,0.00283,150.46,,,,,,,
5991.54,0.0028,146.9,,,,,,,
5991.56,0.00278,143.07,,,,,,,
5991.58,0.00275,139.26,,,,,,,
5991.61,0.00272,135.65,,,,,,,
5991.63,0.0027,131.92,,,,,,,
5991.65,0.00267,128.34,,,,,,,
5991.67,0.00265,124.96,,,,,,,
5991.7,0.00262,121.63,,,,,,,
5991.72,0.00259,118.03,,,,,,,
5991.75,0.00257,114.62,,,,,,,
5991.78,0.00254,111.34,,,,,,,
5991.8,0.00252,108.19,,,,,,,
5991.82,0.0025,106.47,,,,,,,
5991.83,0.00249,104.96,,,,,,,
5991.86,0.00247,101.91,,,,,,,
5991.88,0.00244,98.91,,,,,,,
5991.91,0.00242,95.56,,,,,,,
5991.94,0.00239,92.66,,,,,,,
5991.97,0.00237,89.3,,,,,,,
5991.99,0.00234,86.09,,,,,,,
5992.02,0.00231,83.02,,,,,,,
5992.05,0.00229,80.0,,,,,,,
5992.08,0.00226,76.9,,,,,,,
5992.1,0.00224,73.76,,,,,,,
5992.13,0.00221,70.9,,,,,,,
5992.16,0.00219,67.75,,,,,,,
5992.19,0.00216,64.36,,,,,,,
5992.21,0.00214,60.91,,,,,,,
5992.24,0.00211,57.69,,,,,,,
5992.27,0.00209,54.59,,,,,,,
5992.29,0.00206,51.54,,,,,,,
5992.32,0.00203,48.62,,,,,,,
5992.35,0.00201,45.61,,,,,,,
5992.37,0.00198,42.77,,,,,,,
5992.4,0.00196,39.54,,,,,,,
5992.43,0.00193,36.59,,,,,,,
5992.45,0.00191,33.47,,,,,,,
5992.48,0.00188,30.29,,,,,,,
5992.51,0.00186,27.28,,,,,,,
5992.54,0.00183,24.35,,,,,,,
5992.56,0.00181,21.42,,,,,,,
5992.59,0.00178,18.09,,,,,,,
5992.62,0.00176,14.8,,,,,,,
5992.65,0.00173,11.98,,,,,,,
5992.67,0.0017,9.07,,,,,,,
5992.7,0.00168,6.02,,,,,,,
5992.73,0.00165,3.01,,,,,,,
5992.75,0.00163,-0.06,,,,,,,
5992.78,0.0016,-3.13,,,,,,,
5992.81,0.00158,-6.06,,,,,,,
5992.82,0.00157,-7.1,,,,,,,
5992.84,0.00155,-8.97,,,,,,,
5992.86,0.00153,-11.71,,,,,,,
5992.89,0.0015,-14.56,,,,,,,
5992.92,0.00147,-17.23,,,,,,,
5992.98,0.00145,-19.86,,,,,,,
5993.09,0.00142,-22.31,,,,,,,
5993.12,0.0014,-24.73,,,,,,,
5993.16,0.00137,-27.68,,,,,,,
5993.19,0.00135,-30.85,,,,,,,
5993.22,0.00132,-33.52,,,,,,,
5993.25,0.0013,-36.44,,,,,,,
5993.28,0.00127,-39.4,,,,,,,
5993.31,0.00124,-42.59,,,,,,,
5993.33,0.00122,-46.2,,,,,,,
5993.35,0.00119,-49.47,,,,,,,
5993.37,0.00117,-53.37,,,,,,,
5993.38,0.00114,-56.47,,,,,,,
5993.39,0.00111,-60.1,,,,,,,
5993.41,0.00109,-63.24,,,,,,,
5993.43,0.00106,-66.82,,,,,,,
5993.44,0.00104,-69.94,,,,,,,
5993.45,0.00101,-72.98,,,,,,,
5993.47,0.00098,-76.25,,,,,,,
5993.48,0.00096,-79.21,,,,,,,
5993.5,0.00093,-82.11,,,,,,,
5993.51,0.00091,-84.88,,,,,,,
5993.53,0.00088,-87.45,,,,,,,
5993.54,0.00086,-90.15,,,,,,,
5993.56,0.00083,-92.66,,,,,,,
5993.58,0.0008,-95.02,,,,,,,
5993.6,0.00078,-97.48,,,,,,,
5993.62,0.00075,-99.87,,,,,,,
5993.64,0.00073,-102.25,,,,,,,
5993.66,0.0007,-104.43,,,,,,,
5993.68,0.00068,-106.67,,,,,,,
5993.71,0.00065,-108.74,,,,,,,
5993.73,0.00063,-110.83,,,,,,,
5993.75,0.0006,-112.53,,,,,,,
5993.79,0.00057,-114.88,,,,,,,
5993.81,0.00055,-116.98,,,,,,,
5993.82,0.00054,-117.51,,,,,,,
5993.84,0.00052,-119.03,,,,,,,
5993.87,0.0005,-121.28,,,,,,,
5993.9,0.00047,-123.36,,,,,,,
5993.92,0.00045,-125.69,,,,,,,
5993.95,0.00042,-128.14,,,,,,,
5993.98,0.0004,-130.74,,,,,,,
5994.01,0.00037,-132.92,,,,,,,
5994.03,0.00035,-135.13,,,,,,,
5994.06,0.00032,-137.26,,,,,,,
5994.08,0.00029,-139.42,,,,,,,
5994.11,0.00027,-141.72,,,,,,,
5994.13,0.00024,-143.54,,,,,,,
5994.16,0.00022,-146.28,,,,,,,
5994.19,0.00019,-148.46,,,,,,,
5994.21,0.00017,-150.72,,,,,,,
5994.24,0.00014,-152.85,,,,,,,
5994.26,0.00012,-154.9,,,,,,,
5994.29,9e-05,-156.99,,,,,,,
5994.31,6e-05,-158.8,,,,,,,
5994.33,4e-05,-160.73,,,,,,,
5994.36,1e-05,-162.85,,,,,,,
5994.39,-1e-05,-164.69,,,,,,,
5994.41,-4e-05,-166.46,,,,,,,
5994.44,-6e-05,-168.24,,,,,,,
5994.46,-9e-05,-170.07,,,,,,,
5994.49,-0.00011,-172.19,,,,,,,
5994.52,-0.00014,-174.1,,,,,,,
5994.54,-0.00016,-175.96,,,,,,,
5994.57,-0.00019,-177.78,,,,,,,
5994.6,-0.00022,-179.98,,,,,,,
5994.63,-0.00024,-181.92,,,,,,,
5994.65,-0.00027,-183.71,,,,,,,
5994.67,-0.00029,-185.65,,,,,,,
5994.7,-0.00032,-187.5,,,,,,,
5994.72,-0.00034,-189.28,,,,,,,
5994.75,-0.00037,-191.0,,,,,,,
5994.77,-0.00039,-192.37,,,,,,,
5994.79,-0.00042,-194.15,,,,,,,
5994.82,-0.00044,-195.93,,,,,,,
5994.85,-0.00047,-197.49,,,,,,,
5994.87,-0.00049,-199.18,,,,,,,
5994.9,-0.00052,-200.87,,,,,,,
5994.93,-0.00054,-202.48,,,,,,,
5994.95,-0.00057,-204.13,,,,,,,
5994.98,-0.00059,-206.0,,,,,,,
5995.01,-0.00062,-207.85,,,,,,,
5995.04,-0.00065,-209.55,,,,,,,
5995.05,-0.00068,-205.19,,,,,,,
5995.05,-0.0007,-205.44,,,,,,,
5995.05,-0.00075,-205.55,,,,,,,
5995.05,-0.0008,-205.64,,,,,,,
5995.05,-0.00084,-205.82,,,,,,,
5995.06,-0.00088,-206.01,,,,,,,
5995.06,-0.00091,-206.19,,,,,,,
5995.16,-0.00088,-197.01,,,,,,,
5995.2,-0.00086,-191.63,,,,,,,
5995.31,-0.00088,-190.86,,,,,,,
5995.34,-0.00091,-193.64,,,,,,,
5995.37,-0.00094,-196.31,,,,,,,
5995.39,-0.00096,-198.68,,,,,,,
5995.41,-0.00099,-201.13,,,,,,,
5995.43,-0.00101,-203.43,,,,,,,
5995.45,-0.00104,-205.81,,,,,,,
5995.47,-0.00106,-208.26,,,,,,,
5995.49,-0.00109,-210.58,,,,,,,
5995.52,-0.00111,-212.65,,,,,,,
5995.54,-0.00114,-214.72,,,,,,,
5995.57,-0.00117,-216.76,,,,,,,
5995.59,-0.00119,-218.69,,,,,,,
5995.61,-0.00122,-220.58,,,,,,,
5995.64,-0.00124,-222.45,,,,,,,
5995.66,-0.00127,-224.08,,,,,,,
5995.69,-0.00129,-225.53,,,,,,,
5995.71,-0.00132,-226.92,,,,,,,
5995.73,-0.00134,-228.45,,,,,,,
5995.74,-0.00138,-218.78,,,,,,,
5995.75,-0.00142,-218.72,,,,,,,
5995.75,-0.00146,-218.94,,,,,,,
5995.75,-0.0015,-219.03,,,,,,,
5995.75,-0.00155,-219.02,,,,,,,
5995.75,-0.00161,-219.11,,,,,,,
5995.75,-0.00167,-219.09,,,,,,,
5995.75,-0.00172,-219.07,,,,,,,
5995.75,-0.00178,-219.14,,,,,,,
5995.75,-0.00182,-219.24,,,,,,,
5995.75,-0.00186,-219.39,,,,,,,
5995.76,-0.00189,-219.48,,,,,,,
5995.76,-0.00192,-219.43,,,,,,,
5995.76,-0.00189,-219.63,,,,,,,
5995.77,-0.00186,-219.59,,,,,,,
5995.81,-0.00183,-207.6,,,,,,,
5995.82,-0.00181,-203.92,,,,,,,
5995.82,-0.00181,-202.6,,,,,,,
5995.83,-0.00178,-198.4,,,,,,,
5995.84,-0.00175,-193.82,,,,,,,
5995.85,-0.00173,-189.66,,,,,,,
5995.86,-0.0017,-185.75,,,,,,,
5995.87,-0.00167,-181.47,,,,,,,
5995.88,-0.00165,-177.53,,,,,,,
5995.89,-0.00162,-173.68,,,,,,,
5995.9,-0.00159,-169.74,,,,,,,
5995.92,-0.00157,-166.43,,,,,,,
5995.94,-0.00154,-162.76,,,,,,,
5996.04,-0.00157,-166.99,,,,,,,
5996.06,-0.0016,-170.61,,,,,,,
5996.08,-0.00162,-174.1,,,,,,,
5996.1,-0.00165,-177.52,,,,,,,
5996.11,-0.00167,-180.9,,,,,,,
5996.13,-0.0017,-184.25,,,,,,,
5996.15,-0.00172,-187.52,,,,,,,
5996.17,-0.00175,-190.52,,,,,,,
5996.19,-0.00178,-193.48,,,,,,,
5996.21,-0.0018,-196.34,,,,,,,
5996.22,-0.00183,-198.87,,,,,,,
5996.25,-0.00185,-201.57,,,,,,,
5996.27,-0.00188,-204.2,,,,,,,
5996.3,-0.0019,-206.84,,,,,,,
5996.33,-0.00193,-209.55,,,,,,,
5996.36,-0.00195,-212.33,,,,,,,
5996.39,-0.00198,-215.03,,,,,,,
5996.42,-0.002,-217.48,,,,,,,
5996.44,-0.00203,-219.87,,,,,,,
5996.47,-0.00206,-222.17,,,,,,,
5996.49,-0.00208,-224.61,,,,,,,
5996.51,-0.00211,-226.66,,,,,,,
5996.54,-0.00213,-229.06,,,,,,,
5996.57,-0.00216,-231.24,,,,,,,
5996.59,-0.00218,-233.62,,,,,,,
5996.62,-0.00221,-235.86,,,,,,,
5996.64,-0.00223,-237.94,,,,,,,
5996.67,-0.00226,-239.82,,,,,,,
5996.68,-0.00229,-229.02,,,,,,,
5996.68,-0.00233,-228.81,,,,,,,
5996.68,-0.00237,-229.04,,,,,,,
5996.68,-0.00242,-229.23,,,,,,,
5996.68,-0.00248,-229.21,,,,,,,
5996.68,-0.00254,-229.3,,,,,,,
5996.68,-0.00261,-229.37,,,,,,,
5996.68,-0.00268,-229.35,,,,,,,
5996.68,-0.00275,-229.47,,,,,,,
5996.69,-0.00281,-229.61,,,,,,,
5996.69,-0.00286,-229.75,,,,,,,
5996.69,-0.00291,-229.88,,,,,,,
5996.69,-0.00294,-229.89,,,,,,,
5996.69,-0.00297,-230.1,,,,,,,
5996.7,-0.00293,-230.3,,,,,,,
5996.7,-0.00291,-230.24,,,,,,,
5996.74,-0.00288,-218.23,,,,,,,
5996.75,-0.00285,-213.34,,,,,,,
5996.76,-0.00283,-208.25,,,,,,,
5996.76,-0.0028,-204.05,,,,,,,
5996.77,-0.00277,-199.34,,,,,,,
5996.78,-0.00275,-195.22,,,,,,,
5996.78,-0.00272,-191.04,,,,,,,
5996.79,-0.00269,-186.97,,,,,,,
5996.8,-0.00266,-182.55,,,,,,,
5996.81,-0.00264,-178.48,,,,,,,
5996.81,-0.00261,-174.55,,,,,,,
5996.82,-0.00259,-172.23,,,,,,,
5996.82,-0.00258,-170.99,,,,,,,
5996.83,-0.00256,-167.31,,,,,,,
5996.84,-0.00253,-163.84,,,,,,,
5996.85,-0.0025,-160.53,,,,,,,
5996.87,-0.00248,-157.12,,,,,,,
5996.89,-0.00245,-154.3,,,,,,,
5996.96,-0.00248,-158.4,,,,,,,
5996.98,-0.0025,-162.26,,,,,,,
5997.0,-0.00253,-165.69,,,,,,,
5997.01,-0.00256,-169.32,,,,,,,
5997.03,-0.00258,-172.5,,,,,,,
5997.04,-0.00261,-175.8,,,,,,,
5997.06,-0.00263,-178.97,,,,,,,
5997.08,-0.00266,-182.2,,,,,,,
5997.09,-0.00269,-185.29,,,,,,,
5997.11,-0.00271,-188.29,,,,,,,
5997.13,-0.00274,-191.23,,,,,,,
5997.15,-0.00276,-194.03,,,,,,,
5997.18,-0.00279,-197.2,,,,,,,
5997.21,-0.00281,-200.15,,,,,,,
5997.23,-0.00284,-202.93,,,,,,,
5997.26,-0.00286,-205.98,,,,,,,
5997.29,-0.00289,-208.83,,,,,,,
5997.33,-0.00291,-210.67,,,,,,,
5997.46,-0.00289,-200.18,,,,,,,
5997.48,-0.00286,-195.73,,,,,,,
5997.5,-0.00284,-191.2,,,,,,,
5997.53,-0.00281,-186.9,,,,,,,
5997.55,-0.00279,-182.68,,,,,,,
5997.57,-0.00276,-178.63,,,,,,,
5997.59,-0.00273,-174.79,,,,,,,
5997.61,-0.00271,-170.63,,,,,,,
5997.63,-0.00268,-166.65,,,,,,,
5997.66,-0.00266,-162.69,,,,,,,
5997.68,-0.00263,-158.56,,,,,,,
5997.71,-0.00261,-154.32,,,,,,,
5997.74,-0.00258,-150.62,,,,,,,
5997.77,-0.00255,-146.62,,,,,,,
5997.79,-0.00253,-142.58,,,,,,,
5997.82,-0.00251,-139.22,,,,,,,
5997.83,-0.0025,-138.34,,,,,,,
5997.85,-0.00248,-134.36,,,,,,,
5997.88,-0.00245,-130.69,,,,,,,
5997.91,-0.00243,-126.55,,,,,,,
5997.94,-0.0024,-122.46,,,,,,,
5997.96,-0.00238,-118.73,,,,,,,
5997.99,-0.00235,-115.03,,,,,,,
5998.01,-0.00233,-111.37,,,,,,,
5998.04,-0.0023,-107.51,,,,,,,
5998.07,-0.00227,-103.72,,,,,,,
5998.09,-0.00225,-99.95,,,,,,,
5998.12,-0.00222,-96.2,,,,,,,
5998.15,-0.0022,-92.1,,,,,,,
5998.18,-0.00217,-88.36,,,,,,,
5998.21,-0.00215,-84.57,,,,,,,
5998.23,-0.00212,-80.85,,,,,,,
5998.26,-0.0021,-77.09,,,,,,,
5998.29,-0.00207,-73.69,,,,,,,
5998.31,-0.00204,-69.85,,,,,,,
5998.34,-0.00202,-66.25,,,,,,,
5998.36,-0.00199,-63.1,,,,,,,
5998.39,-0.00197,-59.34,,,,,,,
5998.42,-0.00194,-55.96,,,,,,,
5998.44,-0.00192,-52.9,,,,,,,
5998.46,-0.00189,-49.79,,,,,,,
5998.49,-0.00187,-46.42,,,,,,,
5998.52,-0.00184,-43.09,,,,,,,
5998.54,-0.00182,-39.91,,,,,,,
5998.57,-0.00179,-36.7,,,,,,,
5998.6,-0.00176,-33.3,,,,,,,
5998.63,-0.00174,-30.01,,,,,,,
5998.66,-0.00171,-26.6,,,,,,,
5998.69,-0.00169,-23.05,,,,,,,
5998.71,-0.00166,-19.6,,,,,,,
5998.74,-0.00164,-16.33,,,,,,,
5998.77,-0.00161,-12.62,,,,,,,
5998.8,-0.00159,-9.49,,,,,,,
5998.82,-0.00156,-6.63,,,,,,,
5998.82,-0.00156,-6.23,,,,,,,
5998.85,-0.00153,-3.13,,,,,,,
5998.87,-0.00151,-0.05,,,,,,,
5998.9,-0.00148,2.91,,,,,,,
5998.92,-0.00146,5.91,,,,,,,
5998.95,-0.00143,9.1,,,,,,,
5998.98,-0.00141,12.05,,,,,,,
5999.01,-0.00138,15.17,,,,,,,
5999.04,-0.00136,18.3,,,,,,,
5999.06,-0.00133,21.32,,,,,,,
5999.09,-0.00131,24.08,,,,,,,
5999.12,-0.00128,26.61,,,,,,,
5999.17,-0.00126,29.0,,,,,,,
5999.21,-0.00123,31.9,,,,,,,
5999.25,-0.00121,34.69,,,,,,,
5999.27,-0.00118,37.57,,,,,,,
5999.29,-0.00116,40.18,,,,,,,
5999.32,-0.00113,43.24,,,,,,,
5999.34,-0.0011,46.11,,,,,,,
5999.36,-0.00108,48.87,,,,,,,
5999.38,-0.00105,51.65,,,,,,,
5999.41,-0.00103,54.3,,,,,,,
5999.43,-0.001,56.96,,,,,,,
5999.47,-0.00098,59.88,,,,,,,
5999.51,-0.00095,62.66,,,,,,,
5999.54,-0.00093,65.66,,,,,,,
5999.57,-0.0009,68.51,,,,,,,
5999.61,-0.00087,71.58,,,,,,,
5999.64,-0.00085,74.46,,,,,,,
5999.67,-0.00082,77.57,,,,,,,
5999.7,-0.0008,80.8,,,,,,,
5999.73,-0.00077,83.9,,,,,,,
5999.76,-0.00075,87.15,,,,,,,
5999.79,-0.00072,90.25,,,,,,,
5999.81,-0.0007,92.99,,,,,,,
5999.82,-0.00069,93.53,,,,,,,
5999.84,-0.00067,95.56,,,,,,,
5999.86,-0.00065,98.31,,,,,,,
5999.89,-0.00062,101.4,,,,,,,
5999.91,-0.0006,104.48,,,,,,,
5999.92,-0.00057,107.66,,,,,,,
5999.94,-0.00054,111.09,,,,,,,
5999.96,-0.00052,114.14,,,,,,,
5999.98,-0.00049,117.23,,,,,,,
5999.99,-0.00047,120.33,,,,,,,
6000.01,-0.00044,123.11,,,,,,,
6000.03,-0.00042,126.08,,,,,,,
6000.04,-0.00039,129.06,,,,,,,
6000.06,-0.00036,131.9,,,,,,,
6000.08,-0.00034,134.75,,,,,,,
6000.1,-0.00031,137.38,,,,,,,
6000.12,-0.00029,140.16,,,,,,,
6000.14,-0.00026,142.73,,,,,,,
6000.17,-0.00024,145.48,,,,,,,
6000.19,-0.00021,147.81,,,,,,,
6000.21,-0.00018,149.98,,,,,,,
6000.23,-0.00016,152.13,,,,,,,
6000.26,-0.00013,154.52,,,,,,,
8981.46,0.00279,145.79,,,,,,,
8981.48,0.00281,149.16,,,,,,,
8981.5,0.00284,152.89,,,,,,,
8981.51,0.00287,156.25,,,,,,,
8981.53,0.00289,159.44,,,,,,,
8981.56,0.00292,162.03,,,,,,,
8981.66,0.00289,155.15,,,,,,,
8981.68,0.00287,151.14,,,,,,,
8981.7,0.00284,147.23,,,,,,,
8981.72,0.00282,143.43,,,,,,,
8981.74,0.00279,139.76,,,,,,,
8981.76,0.00276,135.97,,,,,,,
8981.78,0.00274,132.38,,,,,,,
8981.8,0.00271,128.81,,,,,,,
8981.82,0.0027,126.33,,,,,,,
8981.83,0.00269,125.26,,,,,,,
8981.85,0.00266,121.79,,,,,,,
8981.87,0.00264,118.45,,,,,,,
8981.9,0.00261,114.82,,,,,,,
8981.93,0.00259,111.03,,,,,,,
8981.96,0.00256,107.3,,,,,,,
8981.99,0.00253,103.81,,,,,,,
8982.01,0.00251,100.23,,,,,,,
8982.05,0.00248,96.16,,,,,,,
8982.08,0.00246,92.4,,,,,,,
8982.11,0.00243,88.42,,,,,,,
8982.13,0.00241,85.08,,,,,,,
8982.16,0.00238,81.65,,,,,,,
8982.18,0.00236,77.96,,,,,,,
8982.21,0.00233,74.18,,,,,,,
8982.24,0.00231,70.84,,,,,,,
8982.26,0.00228,67.33,,,,,,,
8982.29,0.00225,64.19,,,,,,,
8982.31,0.00223,60.81,,,,,,,
8982.34,0.0022,57.7,,,,,,,
8982.37,0.00218,54.22,,,,,,,
8982.39,0.00215,51.2,,,,,,,
8982.42,0.00213,47.64,,,,,,,
8982.45,0.0021,44.35,,,,,,,
8982.48,0.00208,40.8,,,,,,,
8982.51,0.00205,37.22,,,,,,,
8982.54,0.00203,33.73,,,,,,,
8982.56,0.002,30.24,,,,,,,
8982.59,0.00197,26.84,,,,,,,
8982.62,0.00195,23.55,,,,,,,
8982.64,0.00192,20.23,,,,,,,
8982.67,0.0019,16.88,,,,,,,
8982.7,0.00187,13.9,,,,,,,
8982.72,0.00185,10.4,,,,,,,
8982.75,0.00182,7.21,,,,,,,
8982.78,0.0018,3.84,,,,,,,
8982.81,0.00177,0.66,,,,,,,
8982.82,0.00176,-0.85,,,,,,,
8982.83,0.00175,-2.32,,,,,,,
8982.86,0.00172,-5.69,,,,,,,
8982.89,0.00169,-8.74,,,,,,,
8982.92,0.00167,-12.06,,,,,,,
8982.95,0.00164,-15.42,,,,,,,
8982.98,0.00162,-18.43,,,,,,,
8983.03,0.00159,-21.52,,,,,,,
8983.15,0.00157,-24.68,,,,,,,
8983.19,0.00154,-28.49,,,,,,,
8983.23,0.00152,-32.16,,,,,,,
8983.26,0.00149,-35.47,,,,,,,
8983.29,0.00147,-39.14,,,,,,,
8983.32,0.00144,-42.15,,,,,,,
8983.35,0.00142,-45.61,,,,,,,
8983.37,0.00139,-49.44,,,,,,,
8983.39,0.00137,-53.39,,,,,,,
8983.4,0.00134,-57.29,,,,,,,
8983.42,0.00131,-60.81,,,,,,,
8983.43,0.00129,-64.13,,,,,,,
8983.44,0.00126,-67.43,,,,,,,
8983.46,0.00123,-70.96,,,,,,,
8983.47,0.00121,-74.42,,,,,,,
8983.48,0.00118,-77.87,,,,,,,
8983.5,0.00115,-80.79,,,,,,,
8983.51,0.00113,-84.33,,,,,,,
8983.53,0.0011,-87.21,,,,,,,
8983.54,0.00108,-90.14,,,,,,,
8983.56,0.00105,-93.14,,,,,,,
8983.57,0.00102,-95.93,,,,,,,
8983.59,0.001,-98.78,,,,,,,
8983.61,0.00097,-101.57,,,,,,,
8983.62,0.00095,-103.98,,,,,,,
8983.64,0.00092,-106.75,,,,,,,
8983.66,0.0009,-109.37,,,,,,,
8983.69,0.00087,-111.63,,,,,,,
8983.71,0.00084,-114.07,,,,,,,
8983.74,0.00082,-116.61,,,,,,,
8983.76,0.00079,-119.11,,,,,,,
8983.78,0.00077,-120.98,,,,,,,
8983.81,0.00074,-123.3,,,,,,,
8983.82,0.00074,-124.08,,,,,,,
8983.84,0.00072,-125.59,,,,,,,
8983.86,0.00069,-127.72,,,,,,,
8983.89,0.00067,-129.84,,,,,,,
8983.92,0.00064,-132.12,,,,,,,
8983.94,0.00062,-134.45,,,,,,,
8983.97,0.00059,-136.65,,,,,,,
8983.99,0.00057,-138.6,,,,,,,
8984.02,0.00054,-140.93,,,,,,,
8984.04,0.00052,-143.05,,,,,,,
8984.07,0.00049,-145.24,,,,,,,
8984.1,0.00046,-147.35,,,,,,,
8984.12,0.00044,-149.53,,,,,,,
8984.15,0.00041,-151.62,,,,,,,
8984.17,0.00039,-153.77,,,,,,,
8984.2,0.00036,-155.91,,,,,,,
8984.22,0.00034,-157.76,,,,,,,
8984.25,0.00031,-159.84,,,,,,,
8984.28,0.00029,-161.94,,,,,,,
8984.3,0.00026,-163.96,,,,,,,
8984.32,0.00024,-165.69,,,,,,,
8984.35,0.00021,-167.61,,,,,,,
8984.37,0.00019,-169.48,,,,,,,
8984.4,0.00016,-171.46,,,,,,,
8984.43,0.00014,-173.35,,,,,,,
8984.45,0.00011,-175.13,,,,,,,
8984.48,8e-05,-177.11,,,,,,,
8984.51,6e-05,-178.81,,,,,,,
8984.53,3e-05,-180.62,,,,,,,
8984.56,1e-05,-182.4,,,,,,,
8984.58,-2e-05,-184.19,,,,,,,
8984.61,-4e-05,-185.98,,,,,,,
8984.63,-7e-05,-187.69,,,,,,,
8984.66,-0.0001,-189.43,,,,,,,
8984.69,-0.00012,-191.09,,,,,,,
8984.71,-0.00015,-192.88,,,,,,,
8984.74,-0.00017,-194.61,,,,,,,
8984.77,-0.0002,-196.43,,,,,,,
8984.79,-0.00022,-198.16,,,,,,,
8984.82,-0.00025,-200.01,,,,,,,
8984.85,-0.00027,-201.86,,,,,,,
8984.87,-0.0003,-203.54,,,,,,,
8984.9,-0.00032,-205.36,,,,,,,
8984.92,-0.00035,-207.0,,,,,,,
8984.95,-0.00038,-208.58,,,,,,,
8984.97,-0.0004,-210.25,,,,,,,
8985.0,-0.00043,-211.99,,,,,,,
8985.03,-0.00045,-213.77,,,,,,,
8985.05,-0.00048,-215.33,,,,,,,
8985.07,-0.00051,-208.3,,,,,,,
8985.08,-0.00055,-208.78,,,,,,,
8985.08,-0.00058,-208.92,,,,,,,
8985.08,-0.00061,-209.1,,,,,,,
8985.08,-0.00066,-209.17,,,,,,,
8985.08,-0.00072,-209.2,,,,,,,
8985.08,-0.00078,-209.28,,,,,,,
8985.08,-0.00084,-209.29,,,,,,,
8985.08,-0.00091,-209.33,,,,,,,
8985.08,-0.00096,-209.43,,,,,,,
8985.09,-0.00102,-209.54,,,,,,,
8985.09,-0.00106,-209.66,,,,,,,
8985.09,-0.00109,-209.72,,,,,,,
8985.09,-0.00113,-209.76,,,,,,,
8985.09,-0.0011,-209.95,,,,,,,
8985.1,-0.00107,-209.93,,,,,,,
8985.14,-0.00105,-198.97,,,,,,,
8985.15,-0.00102,-194.07,,,,,,,
8985.15,-0.00099,-189.43,,,,,,,
8985.16,-0.00097,-185.13,,,,,,,
8985.17,-0.00094,-180.73,,,,,,,
8985.18,-0.00091,-176.53,,,,,,,
8985.19,-0.00089,-172.23,,,,,,,
8985.19,-0.00086,-168.29,,,,,,,
8985.2,-0.00083,-164.51,,,,,,,
8985.21,-0.00081,-160.39,,,,,,,
8985.22,-0.00078,-156.83,,,,,,,
8985.23,-0.00075,-152.94,,,,,,,
8985.24,-0.00073,-149.25,,,,,,,
8985.26,-0.0007,-145.72,,,,,,,
8985.28,-0.00067,-142.43,,,,,,,
8985.36,-0.0007,-146.95,,,,,,,
8985.38,-0.00073,-150.42,,,,,,,
8985.4,-0.00075,-153.91,,,,,,,
8985.42,-0.00078,-157.3,,,,,,,
8985.43,-0.0008,-160.38,,,,,,,
8985.45,-0.00083,-163.51,,,,,,,
8985.46,-0.00086,-166.64,,,,,,,
8985.48,-0.00088,-169.59,,,,,,,
8985.5,-0.00091,-172.54,,,,,,,
8985.52,-0.00093,-175.44,,,,,,,
8985.54,-0.00096,-178.11,,,,,,,
8985.56,-0.00098,-180.77,,,,,,,
8985.59,-0.00101,-183.46,,,,,,,
8985.61,-0.00104,-186.0,,,,,,,
8985.64,-0.00106,-188.53,,,,,,,
8985.67,-0.00109,-190.99,,,,,,,
8985.7,-0.00111,-193.21,,,,,,,
8985.72,-0.00114,-195.62,,,,,,,
8985.75,-0.00116,-197.9,,,,,,,
8985.78,-0.00119,-200.08,,,,,,,
8985.81,-0.00121,-202.45,,,,,,,
8985.82,-0.00123,-203.59,,,,,,,
8985.83,-0.00124,-204.79,,,,,,,
8985.86,-0.00127,-207.25,,,,,,,
8985.89,-0.00129,-209.48,,,,,,,
8985.91,-0.00132,-211.95,,,,,,,
8985.94,-0.00134,-214.16,,,,,,,
8985.96,-0.00137,-216.43,,,,,,,
8985.99,-0.00139,-218.55,,,,,,,
8986.01,-0.00142,-220.53,,,,,,,
8986.03,-0.00144,-222.27,,,,,,,
8986.06,-0.00147,-224.06,,,,,,,
8986.08,-0.0015,-225.88,,,,,,,
8986.11,-0.00152,-227.8,,,,,,,
8986.13,-0.00155,-229.51,,,,,,,
8986.16,-0.00157,-231.12,,,,,,,
8986.18,-0.0016,-232.76,,,,,,,
8986.21,-0.00162,-234.36,,,,,,,
8986.23,-0.00165,-223.71,,,,,,,
8986.23,-0.00168,-224.2,,,,,,,
8986.23,-0.00171,-224.27,,,,,,,
8986.24,-0.00174,-224.22,,,,,,,
8986.24,-0.00177,-224.47,,,,,,,
8986.26,-0.0018,-225.68,,,,,,,
8986.34,-0.00182,-223.83,,,,,,,
8986.42,-0.00185,-222.75,,,,,,,
8986.47,-0.00187,-223.7,,,,,,,
8986.5,-0.0019,-225.81,,,,,,,
8986.53,-0.00192,-227.99,,,,,,,
8986.56,-0.00195,-230.49,,,,,,,
8986.58,-0.00197,-232.66,,,,,,,
8986.6,-0.002,-234.84,,,,,,,
8986.63,-0.00202,-236.88,,,,,,,
8986.65,-0.00205,-238.89,,,,,,,
8986.66,-0.00208,-231.05,,,,,,,
8986.67,-0.00211,-231.67,,,,,,,
8986.67,-0.00215,-231.72,,,,,,,
8986.67,-0.00219,-231.76,,,,,,,
8986.67,-0.00223,-232.08,,,,,,,
8986.67,-0.00225,-232.26,,,,,,,
8986.71,-0.00228,-233.56,,,,,,,
8986.82,-0.00228,-226.35,,,,,,,
8986.93,-0.0023,-227.61,,,,,,,
8986.95,-0.00233,-229.74,,,,,,,
8986.98,-0.00236,-232.14,,,,,,,
8987.0,-0.00238,-234.48,,,,,,,
8987.02,-0.00241,-236.58,,,,,,,
8987.03,-0.00243,-238.65,,,,,,,
8987.05,-0.00246,-240.89,,,,,,,
8987.08,-0.00248,-242.89,,,,,,,
8987.1,-0.00251,-244.65,,,,,,,
8987.12,-0.00254,-234.95,,,,,,,
8987.12,-0.00256,-235.95,,,,,,,
8987.12,-0.00259,-235.68,,,,,,,
8987.12,-0.00263,-235.83,,,,,,,
8987.12,-0.00268,-236.14,,,,,,,
8987.12,-0.00275,-236.3,,,,,,,
8987.12,-0.00282,-236.32,,,,,,,
8987.12,-0.00291,-236.39,,,,,,,
8987.12,-0.00299,-236.31,,,,,,,
8987.12,-0.00308,-236.28,,,,,,,
8987.13,-0.00316,-236.46,,,,,,,
8987.13,-0.00323,-236.67,,,,,,,
8987.13,-0.0033,-236.81,,,,,,,
8987.13,-0.00335,-236.83,,,,,,,
8987.13,-0.00338,-236.72,,,,,,,
8987.13,-0.00341,-237.04,,,,,,,
8987.13,-0.00338,-237.02,,,,,,,
8987.14,-0.00335,-236.98,,,,,,,
8987.14,-0.00331,-236.98,,,,,,,
8987.15,-0.00334,-234.76,,,,,,,
8987.16,-0.00331,-229.84,,,,,,,
8987.18,-0.00329,-222.07,,,,,,,
8987.18,-0.00326,-217.33,,,,,,,
8987.19,-0.00323,-212.27,,,,,,,
8987.2,-0.0032,-207.69,,,,,,,
8987.2,-0.00317,-202.94,,,,,,,
8987.21,-0.00314,-198.22,,,,,,,
8987.21,-0.00312,-194.1,,,,,,,
8987.22,-0.00309,-190.04,,,,,,,
8987.22,-0.00307,-186.09,,,,,,,
8987.23,-0.00304,-182.23,,,,,,,
8987.23,-0.00301,-178.56,,,,,,,
8987.24,-0.00298,-174.21,,,,,,,
8987.24,-0.00296,-170.73,,,,,,,
8987.25,-0.00293,-166.73,,,,,,,
8987.25,-0.0029,-162.93,,,,,,,
8987.26,-0.00287,-159.34,,,,,,,
8987.27,-0.00285,-155.39,,,,,,,
8987.27,-0.00282,-151.89,,,,,,,
8987.28,-0.0028,-148.78,,,,,,,
8987.29,-0.00277,-145.21,,,,,,,
8987.3,-0.00274,-142.2,,,,,,,
8987.31,-0.00272,-138.53,,,,,,,
8987.34,-0.00269,-136.24,,,,,,,
8987.4,-0.00272,-141.32,,,,,,,
8987.41,-0.00274,-144.98,,,,,,,
8987.43,-0.00277,-148.58,,,,,,,
8987.44,-0.00279,-152.13,,,,,,,
8987.46,-0.00282,-155.61,,,,,,,
8987.47,-0.00285,-158.89,,,,,,,
8987.49,-0.00287,-162.21,,,,,,,
8987.5,-0.0029,-165.06,,,,,,,
8987.52,-0.00292,-167.85,,,,,,,
8987.55,-0.00295,-170.2,,,,,,,
8987.65,-0.00292,-160.96,,,,,,,
8987.67,-0.0029,-156.62,,,,,,,
8987.69,-0.00287,-152.64,,,,,,,
8987.71,-0.00284,-148.83,,,,,,,
8987.73,-0.00282,-145.05,,,,,,,
8987.74,-0.00279,-141.32,,,,,,,
8987.76,-0.00277,-137.49,,,,,,,
8987.78,-0.00274,-133.72,,,,,,,
8987.81,-0.00272,-129.69,,,,,,,
8987.82,-0.0027,-127.32,,,,,,,
8987.83,-0.00269,-125.94,,,,,,,
8987.85,-0.00267,-122.26,,,,,,,
8987.88,-0.00264,-118.53,,,,,,,
8987.91,-0.00262,-114.59,,,,,,,
8987.93,-0.00259,-110.82,,,,,,,
8987.96,-0.00256,-107.37,,,,,,,
8987.99,-0.00254,-103.21,,,,,,,
8988.02,-0.00251,-99.59,,,,,,,
8988.04,-0.00249,-96.23,,,,,,,
8988.07,-0.00246,-92.37,,,,,,,
8988.1,-0.00244,-88.45,,,,,,,
8988.13,-0.00241,-84.74,,,,,,,
8988.16,-0.00239,-81.0,,,,,,,
8988.18,-0.00236,-77.45,,,,,,,
8988.21,-0.00233,-73.8,,,,,,,
8988.24,-0.00231,-69.94,,,,,,,
8988.26,-0.00228,-66.19,,,,,,,
8988.29,-0.00226,-62.78,,,,,,,
8988.31,-0.00223,-59.3,,,,,,,
8988.34,-0.00221,-56.03,,,,,,,
8988.37,-0.00218,-52.31,,,,,,,
8988.4,-0.00216,-48.35,,,,,,,
8988.43,-0.00213,-44.58,,,,,,,
8988.45,-0.0021,-41.51,,,,,,,
8988.48,-0.00208,-38.19,,,,,,,
8988.5,-0.00205,-34.45,,,,,,,
8988.53,-0.00203,-30.9,,,,,,,
8988.56,-0.002,-27.58,,,,,,,
8988.58,-0.00198,-24.28,,,,,,,
8988.61,-0.00195,-20.96,,,,,,,
8988.64,-0.00193,-17.99,,,,,,,
8988.66,-0.0019,-14.73,,,,,,,
8988.69,-0.00188,-11.64,,,,,,,
8988.72,-0.00185,-8.4,,,,,,,
8988.74,-0.00182,-5.08,,,,,,,
8988.77,-0.0018,-2.04,,,,,,,
8988.79,-0.00177,0.96,,,,,,,
8988.82,-0.00175,3.7,,,,,,,
8988.82,-0.00175,4.03,,,,,,,
8988.85,-0.00172,7.02,,,,,,,
8988.88,-0.0017,10.32,,,,,,,
8988.91,-0.00167,13.8,,,,,,,
8988.93,-0.00165,16.77,,,,,,,
8988.96,-0.00162,19.62,,,,,,,
8988.99,-0.0016,22.62,,,,,,,
8989.02,-0.00157,25.48,,,,,,,
8989.05,-0.00155,27.89,,,,,,,
8989.11,-0.00152,30.71,,,,,,,
8989.14,-0.00149,33.49,,,,,,,
8989.17,-0.00147,36.51,,,,,,,
8989.2,-0.00144,39.81,,,,,,,
8989.22,-0.00142,43.15,,,,,,,
8989.24,-0.00139,46.14,,,,,,,
8989.27,-0.00137,49.34,,,,,,,
8989.29,-0.00134,52.13,,,,,,,
8989.31,-0.00132,54.97,,,,,,,
8989.34,-0.00129,57.69,,,,,,,
8989.37,-0.00127,60.55,,,,,,,
8989.41,-0.00124,63.64,,,,,,,
8989.44,-0.00122,66.76,,,,,,,
8989.48,-0.00119,69.71,,,,,,,
8989.51,-0.00116,72.52,,,,,,,
8989.54,-0.00114,75.24,,,,,,,
8989.57,-0.00111,78.23,,,,,,,
8989.59,-0.00109,80.78,,,,,,,
8989.62,-0.00106,83.4,,,,,,,
8989.65,-0.00104,86.08,,,,,,,
8989.68,-0.00101,88.82,,,,,,,
8989.71,-0.00099,91.53,,,,,,,
8989.73,-0.00096,94.4,,,,,,,
8989.76,-0.00094,97.22,,,,,,,
8989.79,-0.00091,100.51,,,,,,,
8989.81,-0.00089,103.64,,,,,,,
8989.82,-0.00087,105.59,,,,,,,
8989.83,-0.00086,106.62,,,,,,,
8989.84,-0.00083,109.6,,,,,,,
8989.86,-0.00081,112.61,,,,,,,
8989.87,-0.00078,115.67,,,,,,,
8989.89,-0.00076,118.46,,,,,,,
8989.91,-0.00073,121.32,,,,,,,
8989.92,-0.00071,124.2,,,,,,,
8989.94,-0.00068,126.96,,,,,,,
8989.96,-0.00066,129.78,,,,,,,
8989.98,-0.00063,132.54,,,,,,,
8990.0,-0.0006,135.04,,,,,,,
8990.01,-0.00058,137.53,,,,,,,
8990.04,-0.00055,139.89,,,,,,,
8990.06,-0.00053,142.1,,,,,,,
8990.08,-0.0005,144.5,,,,,,,
8990.1,-0.00048,146.77,,,,,,,
8990.13,-0.00045,148.9,,,,,,,
8990.15,-0.00043,150.95,,,,,,,
8990.18,-0.0004,153.12,,,,,,,
8990.21,-0.00037,155.29,,,,,,,
8990.23,-0.00035,157.3,,,,,,,
8990.26,-0.00032,159.37,,,,,,,
8990.28,-0.0003,161.39,,,,,,,
8990.31,-0.00027,163.28,,,,,,,
8990.33,-0.00025,165.11,,,,,,,
8990.35,-0.00022,166.95,,,,,,,
8990.38,-0.0002,168.74,,,,,,,
8990.4,-0.00017,170.55,,,,,,,
8990.43,-0.00015,172.35,,,,,,,
8990.46,-0.00012,174.19,,,,,,,
8990.48,-9e-05,176.07,,,,,,,
8990.51,-7e-05,177.96,,,,,,,
8990.54,-4e-05,179.7,,,,,,,
8990.57,-2e-05,181.53,,,,,,,
8990.59,1e-05,183.29,,,,,,,
8990.62,3e-05,184.96,,,,,,,
8990.64,6e-05,186.57,,,,,,,
8990.66,9e-05,188.29,,,,,,,
8990.69,0.00011,189.86,,,,,,,
8990.72,0.00014,191.53,,,,,,,
8990.74,0.00016,193.07,,,,,,,
8990.77,0.00019,194.74,,,,,,,
8990.79,0.00021,196.27,,,,,,,
8990.82,0.00024,197.78,,,,,,,
8990.82,0.00024,197.84,,,,,,,
8990.85,0.00026,199.46,,,,,,,
8990.87,0.00029,200.98,,,,,,,
8990.9,0.00032,202.52,,,,,,,
8990.92,0.00034,203.68,,,,,,,
8990.93,0.00037,203.34,,,,,,,
8990.93,0.0004,203.56,,,,,,,
8990.94,0.00043,203.86,,,,,,,
8990.97,0.00046,204.87,,,,,,,
8991.01,0.00048,204.82,,,,,,,
8991.07,0.00051,204.25,,,,,,,
8991.11,0.00053,204.82,,,,,,,
8991.14,0.00056,205.96,,,,,,,
8991.17,0.00058,207.48,,,,,,,
8991.2,0.00061,208.99,,,,,,,
8991.22,0.00063,210.66,,,,,,,
8991.25,0.00066,212.34,,,,,,,
8991.27,0.00069,210.11,,,,,,,
8991.27,0.00073,210.39,,,,,,,
8991.27,0.00078,210.55,,,,,,,
8991.27,0.00081,210.63,,,,,,,
8991.27,0.00084,210.66,,,,,,,
8991.28,0.00087,210.72,,,,,,,
8991.28,0.0009,210.82,,,,,,,
8991.28,0.00092,210.89,,,,,,,
8991.28,0.00096,211.06,,,,,,,
8991.38,0.00093,198.31,,,,,,,
8991.41,0.00091,192.71,,,,,,,
8991.57,0.00093,191.88,,,,,,,
8991.59,0.00096,194.68,,,,,,,
8991.61,0.00099,197.61,,,,,,,
8991.63,0.00101,200.41,,,,,,,
8991.65,0.00104,203.06,,,,,,,
8991.67,0.00106,205.75,,,,,,,
8991.69,0.00109,208.28,,,,,,,
8991.71,0.00111,210.67,,,,,,,
8991.73,0.00114,212.83,,,,,,,
8991.75,0.00116,214.84,,,,,,,
8991.78,0.00119,216.73,,,,,,,
8991.8,0.00122,218.62,,,,,,,
8991.82,0.00123,219.88,,,,,,,
8991.83,0.00124,220.48,,,,,,,
8991.85,0.00127,222.28,,,,,,,
8991.88,0.00129,223.96,,,,,,,
8991.91,0.00132,225.59,,,,,,,
8991.93,0.00135,219.7,,,,,,,
8991.93,0.00138,219.77,,,,,,,
8991.93,0.0014,220.05,,,,,,,
8991.95,0.00143,221.2,,,,,,,
8991.98,0.00146,222.06,,,,,,,
8992.03,0.00148,221.98,,,,,,,
8992.08,0.00151,222.24,,,,,,,
8992.12,0.00153,223.26,,,,,,,
8992.16,0.00156,224.91,,,,,,,
8992.19,0.00158,226.72,,,,,,,
8992.21,0.00161,228.7,,,,,,,
8992.24,0.00163,230.55,,,,,,,
8992.26,0.00166,226.22,,,,,,,
8992.27,0.00169,227.09,,,,,,,
8992.27,0.00172,227.33,,,,,,,
8992.27,0.00175,227.43,,,,,,,
8992.27,0.00178,227.6,,,,,,,
8992.28,0.0018,227.89,,,,,,,
8992.31,0.00183,229.3,,,,,,,
8992.38,0.00185,227.26,,,,,,,
8992.47,0.00188,226.02,,,,,,,
8992.51,0.0019,227.44,,,,,,,
8992.54,0.00193,229.49,,,,,,,
8992.57,0.00195,231.73,,,,,,,
8992.59,0.00198,234.06,,,,,,,
8992.62,0.00201,236.08,,,,,,,
8992.64,0.00203,238.16,,,,,,,
8992.66,0.00206,240.12,,,,,,,
8992.68,0.00208,241.73,,,,,,,
8992.68,0.00211,230.49,,,,,,,
8992.69,0.00214,230.13,,,,,,,
8992.69,0.00218,230.26,,,,,,,
8992.69,0.00224,230.52,,,,,,,
8992.69,0.00231,230.72,,,,,,,
8992.69,0.00239,230.7,,,,,,,
8992.69,0.00249,230.79,,,,,,,
8992.69,0.00259,230.85,,,,,,,
8992.69,0.00269,230.8,,,,,,,
8992.69,0.00279,230.91,,,,,,,
8992.69,0.00288,231.04,,,,,,,
8992.7,0.00296,231.18,,,,,,,
8992.7,0.00302,231.34,,,,,,,
8992.7,0.00306,231.31,,,,,,,
8992.7,0.00309,231.29,,,,,,,
8992.7,0.00307,231.44,,,,,,,
8992.71,0.00302,231.45,,,,,,,
8992.71,0.00299,231.29,,,,,,,
8992.72,0.00301,228.55,,,,,,,
8992.73,0.00298,223.29,,,,,,,
8992.74,0.00296,216.17,,,,,,,
8992.75,0.00293,211.01,,,,,,,
8992.75,0.0029,206.21,,,,,,,
8992.76,0.00287,201.28,,,,,,,
8992.76,0.00285,196.95,,,,,,,
8992.77,0.00282,192.62,,,,,,,
8992.77,0.00279,188.21,,,,,,,
8992.78,0.00276,183.73,,,,,,,
8992.78,0.00273,179.38,,,,,,,
8992.79,0.0027,174.99,,,,,,,
8992.79,0.00267,170.85,,,,,,,
8992.8,0.00264,166.73,,,,,,,
8992.8,0.00261,162.59,,,,,,,
8992.81,0.00259,158.61,,,,,,,
8992.81,0.00256,154.78,,,,,,,
8992.82,0.00253,151.06,,,,,,,
8992.82,0.00252,149.68,,,,,,,
8992.82,0.00251,147.62,,,,,,,
8992.83,0.00248,144.36,,,,,,,
8992.83,0.00245,140.45,,,,,,,
8992.84,0.00242,136.91,,,,,,,
8992.84,0.0024,133.59,,,,,,,
8992.85,0.00237,129.99,,,,,,,
8992.86,0.00235,126.92,,,,,,,
8992.87,0.00232,123.94,,,,,,,
8992.88,0.00229,120.79,,,,,,,
8992.89,0.00227,117.91,,,,,,,
8992.91,0.00224,115.84,,,,,,,
8992.97,0.00227,121.5,,,,,,,
8992.98,0.00229,125.39,,,,,,,
8993.0,0.00232,129.21,,,,,,,
8993.01,0.00234,132.69,,,,,,,
8993.02,0.00237,136.14,,,,,,,
8993.04,0.0024,139.57,,,,,,,
8993.05,0.00242,142.96,,,,,,,
8993.06,0.00245,146.25,,,,,,,
8993.07,0.00247,149.42,,,,,,,
8993.09,0.0025,152.68,,,,,,,
8993.11,0.00252,156.09,,,,,,,
8993.12,0.00255,159.38,,,,,,,
8993.14,0.00258,162.46,,,,,,,
8993.17,0.0026,165.46,,,,,,,
8993.19,0.00263,168.2,,,,,,,
8993.21,0.00265,170.6,,,,,,,
8993.24,0.00268,172.9,,,,,,,
8993.27,0.0027,175.24,,,,,,,
8993.29,0.00273,177.54,,,,,,,
8993.32,0.00275,179.82,,,,,,,
8993.35,0.00278,182.24,,,,,,,
8993.38,0.0028,184.66,,,,,,,
8993.41,0.00283,187.11,,,,,,,
8993.44,0.00285,189.78,,,,,,,
11992.67,-0.00012,139.9,,,,,,,
11992.69,-0.0001,142.31,,,,,,,
11992.71,-7e-05,144.64,,,,,,,
11992.73,-5e-05,146.67,,,,,,,
11992.76,-2e-05,148.58,,,,,,,
11992.78,0.0,150.51,,,,,,,
11992.8,3e-05,152.36,,,,,,,
11992.82,4e-05,153.44,,,,,,,
11992.83,5e-05,154.27,,,,,,,
11992.86,8e-05,156.07,,,,,,,
11992.88,0.0001,157.76,,,,,,,
11992.9,0.00013,159.5,,,,,,,
11992.93,0.00015,161.14,,,,,,,
11992.96,0.00018,163.1,,,,,,,
11992.99,0.00021,165.14,,,,,,,
11993.02,0.00023,167.12,,,,,,,
11993.04,0.00026,168.99,,,,,,,
11993.07,0.00028,171.0,,,,,,,
11993.1,0.00031,172.99,,,,,,,
11993.12,0.00033,175.06,,,,,,,
11993.15,0.00036,177.07,,,,,,,
11993.17,0.00038,179.07,,,,,,,
11993.2,0.00041,181.06,,,,,,,
11993.22,0.00043,182.98,,,,,,,
11993.25,0.00046,184.83,,,,,,,
11993.27,0.00049,186.65,,,,,,,
11993.29,0.00051,188.47,,,,,,,
11993.32,0.00054,190.05,,,,,,,
11993.34,0.00056,191.72,,,,,,,
11993.37,0.00059,193.37,,,,,,,
11993.4,0.00061,194.96,,,,,,,
11993.42,0.00064,196.69,,,,,,,
11993.45,0.00066,197.64,,,,,,,
11993.47,0.00069,199.15,,,,,,,
11993.5,0.00072,200.65,,,,,,,
11993.52,0.00074,202.05,,,,,,,
11993.54,0.00077,203.37,,,,,,,
11993.57,0.00079,204.92,,,,,,,
11993.6,0.00082,206.32,,,,,,,
11993.61,0.00085,204.01,,,,,,,
11993.61,0.00088,204.18,,,,,,,
11993.62,0.00092,204.29,,,,,,,
11993.62,0.00097,204.39,,,,,,,
11993.62,0.00102,204.5,,,,,,,
11993.62,0.00105,204.61,,,,,,,
11993.62,0.00108,204.79,,,,,,,
11993.63,0.00106,204.99,,,,,,,
11993.77,0.00103,188.92,,,,,,,
11993.82,0.00103,186.26,,,,,,,
11993.88,0.00106,188.23,,,,,,,
11993.9,0.00108,190.57,,,,,,,
11993.93,0.00111,192.84,,,,,,,
11993.95,0.00113,195.38,,,,,,,
11993.97,0.00116,197.88,,,,,,,
11993.99,0.00118,200.35,,,,,,,
11994.01,0.00121,202.59,,,,,,,
11994.03,0.00124,204.8,,,,,,,
11994.06,0.00126,206.99,,,,,,,
11994.08,0.00129,209.0,,,,,,,
11994.1,0.00131,211.01,,,,,,,
11994.13,0.00134,212.95,,,,,,,
11994.16,0.00136,214.87,,,,,,,
11994.18,0.00139,216.64,,,,,,,
11994.21,0.00142,218.34,,,,,,,
11994.23,0.00144,219.89,,,,,,,
11994.26,0.00147,221.46,,,,,,,
11994.28,0.00149,223.03,,,,,,,
11994.3,0.00152,224.4,,,,,,,
11994.32,0.00155,215.26,,,,,,,
11994.33,0.00157,215.67,,,,,,,
11994.35,0.0016,216.9,,,,,,,
11994.38,0.00162,218.17,,,,,,,
11994.4,0.00165,219.07,,,,,,,
11994.44,0.00167,219.91,,,,,,,
11994.47,0.0017,220.8,,,,,,,
11994.5,0.00172,221.81,,,,,,,
11994.53,0.00175,222.84,,,,,,,
11994.56,0.00177,224.06,,,,,,,
11994.58,0.0018,225.34,,,,,,,
11994.61,0.00182,226.74,,,,,,,
11994.64,0.00185,228.2,,,,,,,
11994.66,0.00188,229.56,,,,,,,
11994.69,0.0019,231.01,,,,,,,
11994.71,0.00193,232.4,,,,,,,
11994.74,0.00195,233.81,,,,,,,
11994.76,0.00198,235.17,,,,,,,
11994.79,0.002,236.52,,,,,,,
11994.81,0.00203,237.78,,,,,,,
11994.82,0.00204,224.05,,,,,,,
11994.82,0.00207,224.23,,,,,,,
11994.82,0.00213,224.54,,,,,,,
11994.82,0.00217,224.7,,,,,,,
11994.82,0.00222,224.68,,,,,,,
11994.83,0.00228,224.74,,,,,,,
11994.83,0.00235,224.73,,,,,,,
11994.83,0.00242,224.67,,,,,,,
11994.83,0.00248,224.76,,,,,,,
11994.83,0.00254,224.85,,,,,,,
11994.83,0.0026,224.98,,,,,,,
11994.83,0.00264,225.12,,,,,,,
11994.83,0.00267,225.06,,,,,,,
11994.83,0.00271,225.16,,,,,,,
11994.84,0.00267,225.23,,,,,,,
11994.84,0.00264,225.18,,,,,,,
11994.85,0.00262,224.82,,,,,,,
11994.85,0.00265,224.03,,,,,,,
11994.88,0.00262,214.61,,,,,,,
11994.89,0.00259,209.72,,,,,,,
11994.9,0.00257,204.4,,,,,,,
11994.91,0.00254,199.98,,,,,,,
11994.91,0.00251,195.36,,,,,,,
11994.92,0.00249,191.52,,,,,,,
11994.93,0.00246,187.11,,,,,,,
11994.94,0.00243,182.74,,,,,,,
11994.94,0.00241,178.82,,,,,,,
11994.95,0.00238,174.85,,,,,,,
11994.96,0.00235,170.83,,,,,,,
11994.97,0.00233,167.53,,,,,,,
11994.98,0.0023,163.77,,,,,,,
11994.99,0.00227,160.21,,,,,,,
11995.0,0.00225,156.91,,,,,,,
11995.02,0.00222,153.57,,,,,,,
11995.12,0.00225,158.17,,,,,,,
11995.13,0.00227,161.74,,,,,,,
11995.15,0.0023,165.24,,,,,,,
11995.17,0.00233,168.42,,,,,,,
11995.18,0.00235,171.74,,,,,,,
11995.2,0.00238,175.03,,,,,,,
11995.21,0.0024,178.38,,,,,,,
11995.23,0.00243,181.39,,,,,,,
11995.25,0.00245,184.47,,,,,,,
11995.27,0.00248,187.39,,,,,,,
11995.29,0.00251,190.24,,,,,,,
11995.31,0.00253,192.94,,,,,,,
11995.34,0.00256,195.57,,,,,,,
11995.36,0.00258,198.0,,,,,,,
11995.39,0.00261,200.47,,,,,,,
11995.42,0.00263,202.76,,,,,,,
11995.44,0.00266,204.92,,,,,,,
11995.47,0.00268,207.1,,,,,,,
11995.5,0.00271,209.44,,,,,,,
11995.53,0.00273,211.65,,,,,,,
11995.55,0.00276,213.86,,,,,,,
11995.58,0.00278,216.19,,,,,,,
11995.61,0.00281,218.41,,,,,,,
11995.63,0.00283,220.64,,,,,,,
11995.66,0.00286,223.02,,,,,,,
11995.69,0.00289,225.15,,,,,,,
11995.71,0.00291,226.72,,,,,,,
11995.76,0.00294,226.38,,,,,,,
11995.82,0.00293,219.86,,,,,,,
11995.84,0.00291,215.99,,,,,,,
11995.87,0.00289,210.74,,,,,,,
11995.89,0.00286,205.69,,,,,,,
11995.91,0.00283,200.83,,,,,,,
11995.93,0.00281,196.12,,,,,,,
11995.95,0.00278,191.59,,,,,,,
11995.97,0.00276,187.13,,,,,,,
11995.99,0.00273,182.69,,,,,,,
11996.02,0.00271,178.3,,,,,,,
11996.04,0.00268,173.98,,,,,,,
11996.06,0.00266,169.77,,,,,,,
11996.09,0.00263,165.52,,,,,,,
11996.11,0.00261,161.24,,,,,,,
11996.14,0.00258,157.05,,,,,,,
11996.16,0.00256,152.9,,,,,,,
11996.19,0.00253,148.86,,,,,,,
11996.22,0.0025,144.92,,,,,,,
11996.24,0.00248,141.01,,,,,,,
11996.27,0.00245,137.23,,,,,,,
11996.3,0.00243,133.48,,,,,,,
11996.32,0.0024,129.57,,,,,,,
11996.35,0.00238,125.94,,,,,,,
11996.38,0.00235,122.19,,,,,,,
11996.4,0.00233,118.43,,,,,,,
11996.43,0.0023,114.7,,,,,,,
11996.46,0.00227,111.1,,,,,,,
11996.49,0.00225,107.36,,,,,,,
11996.51,0.00222,103.96,,,,,,,
11996.54,0.0022,100.36,,,,,,,
11996.57,0.00217,96.7,,,,,,,
11996.59,0.00215,93.21,,,,,,,
11996.62,0.00212,89.73,,,,,,,
11996.65,0.0021,86.04,,,,,,,
11996.67,0.00207,82.76,,,,,,,
11996.7,0.00205,79.32,,,,,,,
11996.73,0.00202,76.11,,,,,,,
11996.75,0.002,72.5,,,,,,,
11996.78,0.00197,69.21,,,,,,,
11996.81,0.00194,65.77,,,,,,,
11996.82,0.00193,64.39,,,,,,,
11996.83,0.00192,62.39,,,,,,,
11996.86,0.00189,59.13,,,,,,,
11996.89,0.00187,55.89,,,,,,,
11996.92,0.00184,52.32,,,,,,,
11996.94,0.00182,49.14,,,,,,,
11996.97,0.00179,45.72,,,,,,,
11997.0,0.00177,42.29,,,,,,,
11997.03,0.00174,38.92,,,,,,,
11997.05,0.00171,35.39,,,,,,,
11997.08,0.00169,32.06,,,,,,,
11997.11,0.00166,28.65,,,,,,,
11997.14,0.00164,25.02,,,,,,,
11997.17,0.00161,21.53,,,,,,,
11997.19,0.00159,17.87,,,,,,,
11997.22,0.00156,14.62,,,,,,,
11997.25,0.00154,11.38,,,,,,,
11997.27,0.00151,8.07,,,,,,,
11997.3,0.00149,4.9,,,,,,,
11997.33,0.00146,1.54,,,,,,,
11997.35,0.00144,-1.62,,,,,,,
11997.38,0.00141,-4.9,,,,,,,
11997.41,0.00138,-8.23,,,,,,,
11997.44,0.00136,-11.44,,,,,,,
11997.47,0.00133,-14.71,,,,,,,
11997.49,0.00131,-17.66,,,,,,,
11997.53,0.00128,-20.36,,,,,,,
11997.59,0.00126,-22.13,,,,,,,
11997.69,0.00123,-24.3,,,,,,,
11997.73,0.00121,-27.32,,,,,,,
11997.76,0.00118,-30.41,,,,,,,
11997.79,0.00116,-33.27,,,,,,,
11997.82,0.00113,-36.06,,,,,,,
11997.82,0.00113,-36.29,,,,,,,
11997.85,0.00111,-39.41,,,,,,,
11997.88,0.00108,-42.08,,,,,,,
11997.91,0.00105,-46.13,,,,,,,
11997.93,0.00103,-50.35,,,,,,,
11997.94,0.001,-54.32,,,,,,,
11997.96,0.00098,-57.88,,,,,,,
11997.97,0.00095,-61.58,,,,,,,
11997.98,0.00093,-64.64,,,,,,,
11998.0,0.0009,-68.01,,,,,,,
11998.01,0.00087,-71.33,,,,,,,
11998.02,0.00085,-74.45,,,,,,,
11998.04,0.00082,-77.51,,,,,,,
11998.05,0.0008,-80.53,,,,,,,
11998.07,0.00077,-83.51,,,,,,,
11998.08,0.00074,-86.28,,,,,,,
11998.09,0.00072,-89.28,,,,,,,
11998.11,0.00069,-91.96,,,,,,,
11998.13,0.00067,-94.56,,,,,,,
11998.14,0.00064,-97.33,,,,,,,
11998.16,0.00061,-99.95,,,,,,,
11998.18,0.00059,-102.17,,,,,,,
11998.2,0.00056,-104.89,,,,,,,
11998.23,0.00054,-107.6,,,,,,,
11998.25,0.00051,-109.89,,,,,,,
11998.28,0.00049,-112.39,,,,,,,
11998.31,0.00046,-114.88,,,,,,,
11998.33,0.00043,-117.21,,,,,,,
11998.36,0.00041,-119.38,,,,,,,
11998.38,0.00038,-121.56,,,,,,,
11998.41,0.00036,-123.67,,,,,,,
11998.44,0.00033,-126.12,,,,,,,
11998.46,0.00031,-128.42,,,,,,,
11998.48,0.00028,-129.93,,,,,,,
11998.51,0.00026,-132.37,,,,,,,
11998.53,0.00023,-134.45,,,,,,,
11998.56,0.0002,-136.69,,,,,,,
11998.59,0.00018,-138.78,,,,,,,
11998.61,0.00015,-140.75,,,,,,,
11998.64,0.00013,-142.63,,,,,,,
11998.67,0.0001,-144.81,,,,,,,
11998.69,8e-05,-146.75,,,,,,,
11998.72,5e-05,-148.66,,,,,,,
11998.74,3e-05,-150.76,,,,,,,
11998.77,0.0,-152.71,,,,,,,
11998.8,-3e-05,-154.66,,,,,,,
11998.82,-5e-05,-156.46,,,,,,,
11998.82,-5e-05,-156.76,,,,,,,
11998.85,-8e-05,-158.64,,,,,,,
11998.87,-0.0001,-160.54,,,,,,,
11998.9,-0.00013,-162.53,,,,,,,
11998.92,-0.00015,-164.36,,,,,,,
11998.95,-0.00018,-166.23,,,,,,,
11998.97,-0.0002,-167.96,,,,,,,
11999.0,-0.00023,-169.69,,,,,,,
11999.03,-0.00025,-172.02,,,,,,,
11999.06,-0.00028,-174.43,,,,,,,
11999.09,-0.0003,-176.16,,,,,,,
11999.11,-0.00033,-178.07,,,,,,,
11999.14,-0.00035,-180.03,,,,,,,
11999.16,-0.00038,-181.95,,,,,,,
11999.19,-0.00041,-183.82,,,,,,,
11999.21,-0.00043,-185.72,,,,,,,
11999.23,-0.00046,-187.42,,,,,,,
11999.26,-0.00048,-189.18,,,,,,,
11999.29,-0.00051,-191.19,,,,,,,
11999.31,-0.00053,-192.96,,,,,,,
11999.34,-0.00056,-194.76,,,,,,,
11999.37,-0.00058,-196.73,,,,,,,
11999.39,-0.00061,-198.42,,,,,,,
11999.41,-0.00064,-199.56,,,,,,,
11999.44,-0.00066,-201.67,,,,,,,
11999.47,-0.00069,-203.48,,,,,,,
11999.49,-0.00071,-205.15,,,,,,,
11999.51,-0.00074,-205.95,,,,,,,
11999.52,-0.00077,-206.58,,,,,,,
11999.55,-0.00079,-208.34,,,,,,,
11999.58,-0.00082,-206.65,,,,,,,
11999.58,-0.00085,-206.85,,,,,,,
11999.58,-0.00088,-206.96,,,,,,,
11999.59,-0.00092,-207.03,,,,,,,
11999.59,-0.00095,-207.12,,,,,,,
11999.59,-0.00098,-207.25,,,,,,,
11999.59,-0.00101,-207.44,,,,,,,
11999.82,-0.00101,-194.06,,,,,,,
11999.86,-0.00103,-196.06,,,,,,,
11999.88,-0.00106,-198.43,,,,,,,
11999.91,-0.00109,-200.89,,,,,,,
11999.93,-0.00111,-203.51,,,,,,,
11999.95,-0.00114,-205.97,,,,,,,
11999.97,-0.00116,-208.2,,,,,,,
12000.0,-0.00119,-210.36,,,,,,,
12000.02,-0.00121,-212.69,,,,,,,
12000.04,-0.00124,-214.82,,,,,,,
12000.07,-0.00126,-216.92,,,,,,,
12000.09,-0.00129,-219.01,,,,,,,
12000.11,-0.00131,-221.09,,,,,,,
12000.14,-0.00134,-223.11,,,,,,,
12000.16,-0.00136,-224.66,,,,,,,
12000.18,-0.00139,-219.8,,,,,,,
12000.19,-0.00142,-220.08,,,,,,,
12000.19,-0.00145,-220.49,,,,,,,
12000.22,-0.00147,-222.35,,,,,,,
12000.25,-0.0015,-223.46,,,,,,,
12000.28,-0.00152,-224.31,,,,,,,
12000.34,-0.00155,-222.32,,,,,,,
12000.37,-0.00157,-224.03,,,,,,,
12000.4,-0.0016,-225.72,,,,,,,
12000.42,-0.00163,-224.76,,,,,,,
12000.42,-0.00166,-224.96,,,,,,,
12000.42,-0.00169,-225.09,,,,,,,
12000.42,-0.00172,-225.2,,,,,,,
12000.43,-0.00174,-225.45,,,,,,,
12000.46,-0.00177,-226.51,,,,,,,
12000.54,-0.0018,-224.77,,,,,,,
12000.6,-0.00182,-224.02,,,,,,,
12000.65,-0.00185,-224.95,,,,,,,
12000.68,-0.00187,-226.85,,,,,,,
12000.71,-0.0019,-228.58,,,,,,,
12000.73,-0.00192,-230.81,,,,,,,
12000.76,-0.00195,-233.16,,,,,,,
12000.79,-0.00197,-235.33,,,,,,,
12000.81,-0.002,-237.27,,,,,,,
12000.82,-0.00201,-238.02,,,,,,,
12000.83,-0.00203,-229.71,,,,,,,
12000.83,-0.00207,-229.48,,,,,,,
12000.83,-0.00211,-229.67,,,,,,,
12000.83,-0.00215,-229.9,,,,,,,
12000.83,-0.00221,-229.96,,,,,,,
12000.83,-0.00228,-229.99,,,,,,,
12000.83,-0.00235,-230.11,,,,,,,
12000.83,-0.00242,-230.1,,,,,,,
12000.84,-0.00249,-230.16,,,,,,,
12000.84,-0.00256,-230.29,,,,,,,
12000.84,-0.00262,-230.42,,,,,,,
12000.84,-0.00267,-230.57,,,,,,,
12000.84,-0.0027,-230.63,,,,,,,
12000.84,-0.00274,-230.68,,,,,,,
12000.85,-0.00271,-230.89,,,,,,,
12000.85,-0.00268,-230.98,,,,,,,
12000.85,-0.00265,-230.92,,,,,,,
12000.86,-0.00268,-229.87,,,,,,,
12000.88,-0.00266,-221.92,,,,,,,
12000.89,-0.00263,-216.75,,,,,,,
12000.9,-0.0026,-211.74,,,,,,,
12000.91,-0.00258,-206.97,,,,,,,
12000.92,-0.00255,-202.75,,,,,,,
12000.92,-0.00252,-197.9,,,,,,,
12000.93,-0.00249,-193.59,,,,,,,
12000.94,-0.00247,-189.49,,,,,,,
12000.94,-0.00244,-185.61,,,,,,,
12000.95,-0.00241,-181.19,,,,,,,
12000.96,-0.00239,-176.99,,,,,,,
12000.97,-0.00236,-173.26,,,,,,,
12000.98,-0.00233,-169.6,,,,,,,
12000.98,-0.00231,-166.04,,,,,,,
12000.99,-0.00228,-162.51,,,,,,,
12001.01,-0.00225,-159.01,,,,,,,
12001.02,-0.00223,-155.94,,,,,,,
12001.05,-0.0022,-153.1,,,,,,,
12001.11,-0.00223,-157.22,,,,,,,
12001.13,-0.00225,-160.41,,,,,,,
12001.14,-0.00228,-163.82,,,,,,,
12001.16,-0.00231,-167.18,,,,,,,
12001.17,-0.00233,-170.53,,,,,,,
12001.19,-0.00236,-173.58,,,,,,,
12001.2,-0.00238,-176.73,,,,,,,
12001.22,-0.00241,-180.38,,,,,,,
12001.24,-0.00244,-183.91,,,,,,,
12001.26,-0.00246,-187.15,,,,,,,
12001.28,-0.00249,-189.92,,,,,,,
12001.3,-0.00251,-192.4,,,,,,,
12001.32,-0.00254,-194.97,,,,,,,
12001.35,-0.00256,-197.6,,,,,,,
12001.37,-0.00259,-200.1,,,,,,,
12001.4,-0.00261,-202.6,,,,,,,
12001.43,-0.00264,-205.13,,,,,,,
12001.45,-0.00266,-207.37,,,,,,,
12001.48,-0.00269,-209.8,,,,,,,
12001.52,-0.00271,-212.57,,,,,,,
12001.55,-0.00274,-215.09,,,,,,,
12001.57,-0.00277,-217.38,,,,,,,
12001.6,-0.00279,-219.73,,,,,,,
12001.62,-0.00282,-222.03,,,,,,,
12001.65,-0.00284,-224.52,,,,,,,
12001.68,-0.00287,-227.04,,,,,,,
12001.7,-0.00289,-229.13,,,,,,,
12001.73,-0.00292,-230.47,,,,,,,
12001.82,-0.00293,-224.61,,,,,,,
12001.86,-0.00289,-216.33,,,,,,,
12001.89,-0.00287,-211.38,,,,,,,
12001.91,-0.00284,-206.68,,,,,,,
12001.92,-0.00282,-202.36,,,,,,,
12001.95,-0.00279,-197.24,,,,,,,
12001.97,-0.00277,-192.7,,,,,,,
12001.99,-0.00274,-188.56,,,,,,,
12002.01,-0.00271,-184.63,,,,,,,
12002.03,-0.00269,-180.6,,,,,,,
12002.05,-0.00266,-176.42,,,,,,,
12002.08,-0.00264,-172.04,,,,,,,
12002.1,-0.00261,-167.89,,,,,,,
12002.13,-0.00259,-163.85,,,,,,,
12002.15,-0.00256,-160.32,,,,,,,
12002.18,-0.00254,-156.64,,,,,,,
12002.2,-0.00251,-152.82,,,,,,,
12002.23,-0.00248,-149.17,,,,,,,
12002.26,-0.00246,-145.21,,,,,,,
12002.29,-0.00243,-141.13,,,,,,,
12002.32,-0.00241,-137.26,,,,,,,
12002.35,-0.00238,-133.12,,,,,,,
12002.38,-0.00236,-129.19,,,,,,,
12002.4,-0.00233,-125.75,,,,,,,
12002.43,-0.00231,-122.24,,,,,,,
12002.45,-0.00228,-119.08,,,,,,,
12002.47,-0.00226,-115.45,,,,,,,
12002.5,-0.00223,-111.75,,,,,,,
12002.53,-0.0022,-108.21,,,,,,,
12002.56,-0.00218,-104.47,,,,,,,
12002.58,-0.00215,-100.96,,,,,,,
12002.61,-0.00213,-97.17,,,,,,,
12002.64,-0.0021,-93.39,,,,,,,
12002.67,-0.00208,-89.67,,,,,,,
12002.7,-0.00205,-86.03,,,,,,,
12002.73,-0.00203,-82.2,,,,,,,
12002.75,-0.002,-78.18,,,,,,,
12002.78,-0.00197,-74.3,,,,,,,
12002.81,-0.00195,-70.01,,,,,,,
12002.82,-0.00194,-69.24,,,,,,,
12002.84,-0.00192,-66.47,,,,,,,
12002.86,-0.0019,-62.97,,,,,,,
12002.89,-0.00187,-59.76,,,,,,,
12002.91,-0.00185,-56.4,,,,,,,
12002.94,-0.00182,-52.88,,,,,,,
12002.97,-0.0018,-49.07,,,,,,,
12002.99,-0.00177,-45.63,,,,,,,
12003.02,-0.00174,-42.26,,,,,,,
12003.05,-0.00172,-38.88,,,,,,,
12003.07,-0.00169,-35.67,,,,,,,
12003.1,-0.00167,-32.31,,,,,,,
12003.12,-0.00164,-29.08,,,,,,,
12003.15,-0.00162,-25.68,,,,,,,
12003.18,-0.00159,-22.75,,,,,,,
12003.2,-0.00157,-19.3,,,,,,,
12003.23,-0.00154,-16.22,,,,,,,
12003.26,-0.00152,-13.13,,,,,,,
12003.28,-0.00149,-10.1,,,,,,,
12003.31,-0.00146,-6.96,,,,,,,
12003.34,-0.00144,-3.67,,,,,,,
12003.36,-0.00141,-0.75,,,,,,,
12003.39,-0.00139,2.27,,,,,,,
12003.41,-0.00136,4.92,,,,,,,
12003.44,-0.00134,7.67,,,,,,,
12003.46,-0.00131,10.36,,,,,,,
12003.49,-0.00129,13.07,,,,,,,
12003.52,-0.00126,15.92,,,,,,,
12003.55,-0.00124,18.99,,,,,,,
12003.58,-0.00121,22.07,,,,,,,
12003.61,-0.00118,24.69,,,,,,,
12003.65,-0.00116,26.85,,,,,,,
12003.7,-0.00113,29.53,,,,,,,
12003.74,-0.00111,32.51,,,,,,,
12003.77,-0.00108,36.19,,,,,,,
12003.8,-0.00106,39.9,,,,,,,
12003.82,-0.00104,42.93,,,,,,,
12003.82,-0.00103,43.61,,,,,,,
12003.84,-0.001,46.76,,,,,,,
12003.86,-0.00098,49.93,,,,,,,
12003.89,-0.00095,52.91,,,,,,,
12003.91,-0.00093,55.74,,,,,,,
12003.94,-0.0009,58.67,,,,,,,
12003.98,-0.00088,61.9,,,,,,,
12004.01,-0.00085,65.08,,,,,,,
12004.05,-0.00083,68.0,,,,,,,
12004.08,-0.0008,70.95,,,,,,,
12004.1,-0.00078,73.52,,,,,,,
12004.14,-0.00075,76.8,,,,,,,
12004.17,-0.00072,79.74,,,,,,,
12004.2,-0.0007,82.76,,,,,,,
12004.23,-0.00067,85.67,,,,,,,
12004.26,-0.00065,88.74,,,,,,,
12004.29,-0.00062,91.49,,,,,,,
12004.31,-0.0006,94.27,,,,,,,
12004.34,-0.00057,97.18,,,,,,,
12004.36,-0.00055,99.86,,,,,,,
12004.39,-0.00052,102.71,,,,,,,
12004.41,-0.0005,106.03,,,,,,,
12004.43,-0.00047,109.18,,,,,,,
12004.44,-0.00044,112.14,,,,,,,
12004.46,-0.00042,115.37,,,,,,,
12004.48,-0.00039,118.57,,,,,,,
12004.49,-0.00037,121.48,,,,,,,
12004.51,-0.00034,124.26,,,,,,,
12004.53,-0.00031,126.92,,,,,,,
12004.54,-0.00029,129.5,,,,,,,
12004.56,-0.00026,131.99,,,,,,,
12004.57,-0.00024,134.42,,,,,,,
12004.59,-0.00021,136.75,,,,,,,
12004.61,-0.00019,138.94,,,,,,,
12004.63,-0.00016,141.26,,,,,,,
12004.65,-0.00014,143.61,,,,,,,
16186.78,0.00307,190.73,,,,,,,
16186.79,0.00304,186.35,,,,,,,
16186.81,0.00302,182.22,,,,,,,
16186.82,0.00301,180.64,,,,,,,
16186.83,0.00299,178.19,,,,,,,
16186.85,0.00297,174.55,,,,,,,
16186.86,0.00294,170.93,,,,,,,
16186.88,0.00292,167.19,,,,,,,
16186.9,0.00289,163.51,,,,,,,
16186.92,0.00286,160.04,,,,,,,
16186.94,0.00284,156.69,,,,,,,
16186.96,0.00281,153.36,,,,,,,
16186.98,0.00279,150.03,,,,,,,
16187.01,0.00276,146.73,,,,,,,
16187.03,0.00274,143.74,,,,,,,
16187.06,0.00271,140.79,,,,,,,
16187.1,0.00269,136.55,,,,,,,
16187.13,0.00266,132.83,,,,,,,
16187.15,0.00264,129.58,,,,,,,
16187.18,0.00261,126.42,,,,,,,
16187.21,0.00258,123.19,,,,,,,
16187.23,0.00256,119.91,,,,,,,
16187.26,0.00253,116.7,,,,,,,
16187.29,0.00251,113.24,,,,,,,
16187.31,0.00248,110.21,,,,,,,
16187.34,0.00246,106.97,,,,,,,
16187.36,0.00243,104.1,,,,,,,
16187.39,0.00241,100.76,,,,,,,
16187.42,0.00238,97.74,,,,,,,
16187.45,0.00235,94.59,,,,,,,
16187.48,0.00233,91.34,,,,,,,
16187.5,0.0023,88.12,,,,,,,
16187.53,0.00228,85.07,,,,,,,
16187.55,0.00225,82.19,,,,,,,
16187.58,0.00223,79.2,,,,,,,
16187.61,0.0022,76.16,,,,,,,
16187.64,0.00218,73.01,,,,,,,
16187.66,0.00215,70.55,,,,,,,
16187.68,0.00213,67.66,,,,,,,
16187.71,0.0021,64.44,,,,,,,
16187.75,0.00207,60.78,,,,,,,
16187.77,0.00205,57.87,,,,,,,
16187.8,0.00202,54.84,,,,,,,
16187.82,0.00201,52.86,,,,,,,
16187.83,0.002,51.82,,,,,,,
16187.86,0.00197,48.59,,,,,,,
16187.88,0.00195,45.4,,,,,,,
16187.91,0.00192,42.73,,,,,,,
16187.93,0.0019,39.82,,,,,,,
16187.96,0.00187,37.1,,,,,,,
16187.98,0.00185,34.54,,,,,,,
16188.0,0.00182,32.12,,,,,,,
16188.03,0.0018,29.61,,,,,,,
16188.05,0.00177,27.16,,,,,,,
16188.08,0.00175,24.56,,,,,,,
16188.11,0.00172,21.93,,,,,,,
16188.13,0.00169,19.54,,,,,,,
16188.16,0.00167,16.84,,,,,,,
16188.19,0.00164,14.13,,,,,,,
16188.22,0.00162,11.6,,,,,,,
16188.25,0.00159,8.83,,,,,,,
16188.27,0.00157,6.18,,,,,,,
16188.3,0.00154,3.8,,,,,,,
16188.33,0.00152,0.75,,,,,,,
16188.35,0.00149,-1.76,,,,,,,
16188.38,0.00147,-4.12,,,,,,,
16188.4,0.00144,-6.42,,,,,,,
16188.43,0.00141,-8.83,,,,,,,
16188.45,0.00139,-11.12,,,,,,,
16188.48,0.00136,-13.28,,,,,,,
16188.52,0.00134,-15.56,,,,,,,
16188.57,0.00131,-17.01,,,,,,,
16188.66,0.00129,-18.01,,,,,,,
16188.71,0.00126,-20.44,,,,,,,
16188.75,0.00124,-23.48,,,,,,,
16188.78,0.00121,-26.1,,,,,,,
16188.8,0.00119,-28.5,,,,,,,
16188.82,0.00117,-29.74,,,,,,,
16188.83,0.00116,-30.89,,,,,,,
16188.86,0.00114,-33.23,,,,,,,
16188.89,0.00111,-35.42,,,,,,,
16188.92,0.00108,-38.2,,,,,,,
16188.94,0.00106,-41.34,,,,,,,
16188.96,0.00103,-44.26,,,,,,,
16188.98,0.00101,-47.62,,,,,,,
16188.99,0.00098,-50.5,,,,,,,
16189.01,0.00095,-53.35,,,,,,,
16189.02,0.00093,-56.04,,,,,,,
16189.03,0.0009,-58.6,,,,,,,
16189.05,0.00088,-61.72,,,,,,,
16189.07,0.00085,-64.33,,,,,,,
16189.08,0.00082,-66.68,,,,,,,
16189.09,0.0008,-68.97,,,,,,,
16189.11,0.00077,-71.39,,,,,,,
16189.12,0.00075,-73.84,,,,,,,
16189.14,0.00072,-76.32,,,,,,,
16189.16,0.0007,-78.59,,,,,,,
16189.18,0.00067,-80.8,,,,,,,
16189.2,0.00064,-83.13,,,,,,,
16189.22,0.00062,-85.06,,,,,,,
16189.23,0.00059,-86.87,,,,,,,
16189.26,0.00057,-88.84,,,,,,,
16189.28,0.00054,-90.86,,,,,,,
16189.31,0.00052,-92.93,,,,,,,
16189.34,0.00049,-94.88,,,,,,,
16189.36,0.00047,-96.61,,,,,,,
16189.38,0.00044,-98.29,,,,,,,
16189.41,0.00041,-100.14,,,,,,,
16189.44,0.00039,-102.21,,,,,,,
16189.47,0.00036,-104.32,,,,,,,
16189.49,0.00034,-106.22,,,,,,,
16189.52,0.00031,-108.01,,,,,,,
16189.54,0.00029,-109.67,,,,,,,
16189.57,0.00026,-111.51,,,,,,,
16189.59,0.00024,-113.18,,,,,,,
16189.61,0.00021,-114.74,,,,,,,
16189.64,0.00018,-116.28,,,,,,,
16189.67,0.00016,-118.15,,,,,,,
16189.69,0.00013,-119.78,,,,,,,
16189.72,0.00011,-121.64,,,,,,,
16189.75,8e-05,-123.64,,,,,,,
16189.78,6e-05,-125.34,,,,,,,
16189.8,3e-05,-126.82,,,,,,,
16189.82,1e-05,-128.29,,,,,,,
16189.82,1e-05,-128.43,,,,,,,
16189.84,-2e-05,-129.79,,,,,,,
16189.87,-4e-05,-131.22,,,,,,,
16189.89,-7e-05,-132.63,,,,,,,
16189.92,-0.0001,-134.38,,,,,,,
16189.95,-0.00012,-135.74,,,,,,,
16189.97,-0.00015,-137.21,,,,,,,
16190.0,-0.00017,-138.65,,,,,,,
16190.02,-0.0002,-140.01,,,,,,,
16190.05,-0.00022,-141.23,,,,,,,
16190.07,-0.00025,-142.72,,,,,,,
16190.1,-0.00027,-144.15,,,,,,,
16190.12,-0.0003,-145.17,,,,,,,
16190.15,-0.00033,-146.27,,,,,,,
16190.18,-0.00035,-147.92,,,,,,,
16190.2,-0.00038,-149.28,,,,,,,
16190.23,-0.0004,-150.83,,,,,,,
16190.26,-0.00043,-152.09,,,,,,,
16190.28,-0.00045,-153.34,,,,,,,
16190.31,-0.00048,-154.73,,,,,,,
16190.33,-0.0005,-156.03,,,,,,,
16190.36,-0.00053,-157.45,,,,,,,
16190.38,-0.00056,-157.98,,,,,,,
16190.38,-0.00059,-158.25,,,,,,,
16190.39,-0.00061,-158.56,,,,,,,
16190.43,-0.00064,-159.78,,,,,,,
16190.46,-0.00066,-160.1,,,,,,,
16190.5,-0.00069,-160.5,,,,,,,
16190.54,-0.00071,-161.33,,,,,,,
16190.58,-0.00074,-162.54,,,,,,,
16190.61,-0.00076,-163.92,,,,,,,
16190.63,-0.00079,-165.27,,,,,,,
16190.66,-0.00082,-166.77,,,,,,,
16190.68,-0.00084,-167.95,,,,,,,
16190.7,-0.00087,-168.61,,,,,,,
16190.72,-0.00089,-169.79,,,,,,,
16190.75,-0.00092,-171.13,,,,,,,
16190.77,-0.00095,-172.38,,,,,,,
16190.8,-0.00097,-173.56,,,,,,,
16190.82,-0.00099,-174.44,,,,,,,
16190.82,-0.001,-174.51,,,,,,,
16190.85,-0.00102,-175.75,,,,,,,
16190.87,-0.00105,-175.04,,,,,,,
16190.87,-0.00109,-175.17,,,,,,,
16190.87,-0.00112,-175.24,,,,,,,
16190.88,-0.00115,-175.29,,,,,,,
16190.88,-0.00117,-175.43,,,,,,,
16190.88,-0.0012,-175.6,,,,,,,
16191.06,-0.00122,-168.84,,,,,,,
16191.11,-0.00125,-169.79,,,,,,,
16191.15,-0.00127,-171.91,,,,,,,
16191.18,-0.0013,-174.59,,,,,,,
16191.2,-0.00133,-176.95,,,,,,,
16191.23,-0.00135,-179.29,,,,,,,
16191.25,-0.00138,-181.39,,,,,,,
16191.27,-0.0014,-183.38,,,,,,,
16191.29,-0.00143,-183.25,,,,,,,
16191.29,-0.00146,-183.81,,,,,,,
16191.31,-0.00149,-185.49,,,,,,,
16191.33,-0.00151,-186.92,,,,,,,
16191.34,-0.00154,-187.29,,,,,,,
16191.35,-0.00156,-187.75,,,,,,,
16191.39,-0.00159,-188.6,,,,,,,
16191.42,-0.00161,-188.86,,,,,,,
16191.46,-0.00164,-189.3,,,,,,,
16191.5,-0.00166,-190.09,,,,,,,
16191.53,-0.00169,-191.03,,,,,,,
16191.57,-0.00172,-192.57,,,,,,,
16191.59,-0.00174,-193.89,,,,,,,
16191.61,-0.00177,-190.4,,,,,,,
16191.61,-0.00181,-190.44,,,,,,,
16191.62,-0.00186,-190.58,,,,,,,
16191.62,-0.00189,-190.65,,,,,,,
16191.62,-0.00193,-190.73,,,,,,,
16191.62,-0.00197,-190.74,,,,,,,
16191.62,-0.002,-190.79,,,,,,,
16191.62,-0.00204,-190.87,,,,,,,
16191.62,-0.00206,-190.94,,,,,,,
16191.62,-0.00211,-191.08,,,,,,,
16191.64,-0.00208,-191.39,,,,,,,
16191.65,-0.00211,-191.01,,,,,,,
16191.69,-0.00208,-183.02,,,,,,,
16191.71,-0.00205,-178.44,,,,,,,
16191.73,-0.00203,-174.49,,,,,,,
16191.75,-0.002,-170.65,,,,,,,
16191.77,-0.00198,-167.27,,,,,,,
16191.8,-0.00195,-163.59,,,,,,,
16191.82,-0.00195,-162.86,,,,,,,
16191.89,-0.00198,-165.79,,,,,,,
16191.91,-0.002,-168.4,,,,,,,
16191.93,-0.00203,-171.07,,,,,,,
16191.95,-0.00205,-173.72,,,,,,,
16191.97,-0.00208,-176.4,,,,,,,
16191.99,-0.0021,-178.95,,,,,,,
16192.01,-0.00213,-181.39,,,,,,,
16192.02,-0.00216,-183.66,,,,,,,
16192.04,-0.00218,-185.72,,,,,,,
16192.06,-0.00221,-187.81,,,,,,,
16192.08,-0.00223,-189.88,,,,,,,
16192.11,-0.00226,-192.04,,,,,,,
16192.14,-0.00228,-194.12,,,,,,,
16192.17,-0.00231,-196.05,,,,,,,
16192.19,-0.00233,-197.92,,,,,,,
16192.23,-0.00236,-199.96,,,,,,,
16192.24,-0.00239,-199.58,,,,,,,
16192.25,-0.00242,-199.86,,,,,,,
16192.25,-0.00244,-200.38,,,,,,,
16192.28,-0.00247,-200.2,,,,,,,
16192.29,-0.0025,-200.54,,,,,,,
16192.31,-0.00252,-201.13,,,,,,,
16192.33,-0.00255,-201.42,,,,,,,
16192.4,-0.00257,-200.99,,,,,,,
16192.44,-0.0026,-201.41,,,,,,,
16192.48,-0.00262,-202.66,,,,,,,
16192.52,-0.00265,-204.4,,,,,,,
16192.55,-0.00267,-206.2,,,,,,,
16192.57,-0.0027,-208.32,,,,,,,
16192.6,-0.00273,-210.37,,,,,,,
16192.62,-0.00275,-211.81,,,,,,,
16192.64,-0.00278,-211.93,,,,,,,
16192.64,-0.00281,-212.2,,,,,,,
16192.65,-0.00283,-212.53,,,,,,,
16192.66,-0.00286,-212.25,,,,,,,
16192.67,-0.00289,-212.6,,,,,,,
16192.69,-0.00291,-213.4,,,,,,,
16192.73,-0.00294,-213.43,,,,,,,
16192.79,-0.00296,-212.1,,,,,,,
16192.82,-0.00297,-209.98,,,,,,,
16192.87,-0.00294,-202.89,,,,,,,
16192.9,-0.00291,-197.63,,,,,,,
16192.93,-0.00289,-192.92,,,,,,,
16192.95,-0.00286,-188.3,,,,,,,
16192.97,-0.00284,-183.79,,,,,,,
16192.99,-0.00281,-179.59,,,,,,,
16193.02,-0.00279,-175.51,,,,,,,
16193.04,-0.00276,-171.43,,,,,,,
16193.06,-0.00273,-167.8,,,,,,,
16193.08,-0.00271,-164.06,,,,,,,
16193.1,-0.00268,-160.42,,,,,,,
16193.13,-0.00266,-156.81,,,,,,,
16193.15,-0.00263,-153.32,,,,,,,
16193.18,-0.00261,-149.81,,,,,,,
16193.2,-0.00258,-146.45,,,,,,,
16193.23,-0.00256,-143.05,,,,,,,
16193.26,-0.00253,-138.87,,,,,,,
16193.29,-0.00251,-134.96,,,,,,,
16193.32,-0.00248,-131.35,,,,,,,
16193.35,-0.00245,-127.77,,,,,,,
16193.37,-0.00243,-124.19,,,,,,,
16193.4,-0.0024,-120.91,,,,,,,
16193.43,-0.00238,-117.52,,,,,,,
16193.45,-0.00235,-114.21,,,,,,,
16193.47,-0.00233,-111.19,,,,,,,
16193.5,-0.0023,-108.29,,,,,,,
16193.52,-0.00227,-104.98,,,,,,,
16193.55,-0.00225,-101.91,,,,,,,
16193.57,-0.00222,-99.09,,,,,,,
16193.6,-0.0022,-96.16,,,,,,,
16193.63,-0.00217,-93.16,,,,,,,
16193.65,-0.00215,-90.61,,,,,,,
16193.68,-0.00212,-87.61,,,,,,,
16193.7,-0.0021,-84.79,,,,,,,
16193.73,-0.00207,-82.07,,,,,,,
16193.76,-0.00205,-79.36,,,,,,,
16193.78,-0.00202,-76.67,,,,,,,
16193.81,-0.00199,-74.18,,,,,,,
16193.82,-0.00198,-73.0,,,,,,,
16193.83,-0.00197,-71.39,,,,,,,
16193.86,-0.00194,-68.57,,,,,,,
16193.89,-0.00192,-66.16,,,,,,,
16193.91,-0.00189,-63.45,,,,,,,
16193.94,-0.00187,-60.69,,,,,,,
16193.97,-0.00184,-58.13,,,,,,,
16193.99,-0.00182,-55.48,,,,,,,
16194.02,-0.00179,-52.67,,,,,,,
16194.05,-0.00177,-50.09,,,,,,,
16194.07,-0.00174,-47.22,,,,,,,
16194.1,-0.00172,-44.5,,,,,,,
16194.13,-0.00169,-41.91,,,,,,,
16194.16,-0.00167,-39.17,,,,,,,
16194.18,-0.00164,-36.31,,,,,,,
16194.21,-0.00161,-33.67,,,,,,,
16194.23,-0.00159,-30.99,,,,,,,
16194.26,-0.00156,-28.21,,,,,,,
16194.29,-0.00154,-25.42,,,,,,,
16194.32,-0.00151,-22.7,,,,,,,
16194.34,-0.00149,-20.13,,,,,,,
16194.37,-0.00146,-17.37,,,,,,,
16194.4,-0.00144,-14.49,,,,,,,
16194.42,-0.00141,-12.09,,,,,,,
16194.45,-0.00139,-9.47,,,,,,,
16194.48,-0.00136,-6.84,,,,,,,
16194.5,-0.00133,-4.21,,,,,,,
16194.53,-0.00131,-1.31,,,,,,,
16194.56,-0.00128,1.49,,,,,,,
16194.59,-0.00126,4.2,,,,,,,
16194.61,-0.00123,6.96,,,,,,,
16194.64,-0.00121,9.61,,,,,,,
16194.67,-0.00118,12.15,,,,,,,
16194.69,-0.00116,14.9,,,,,,,
16194.72,-0.00113,17.43,,,,,,,
16194.75,-0.0011,19.98,,,,,,,
16194.77,-0.00108,22.42,,,,,,,
16194.81,-0.00105,24.68,,,,,,,
16194.82,-0.00105,25.13,,,,,,,
16194.86,-0.00103,27.05,,,,,,,
16194.9,-0.001,29.43,,,,,,,
16194.94,-0.00098,32.45,,,,,,,
16194.97,-0.00095,35.32,,,,,,,
16194.99,-0.00093,37.95,,,,,,,
16195.01,-0.0009,41.04,,,,,,,
16195.03,-0.00087,43.76,,,,,,,
16195.04,-0.00085,46.05,,,,,,,
16195.07,-0.00082,48.5,,,,,,,
16195.09,-0.0008,50.72,,,,,,,
16195.12,-0.00077,53.15,,,,,,,
16195.16,-0.00075,55.49,,,,,,,
16195.19,-0.00072,57.49,,,,,,,
16195.21,-0.0007,59.39,,,,,,,
16195.25,-0.00067,61.47,,,,,,,
16195.28,-0.00064,63.78,,,,,,,
16195.31,-0.00062,66.14,,,,,,,
16195.34,-0.00059,68.25,,,,,,,
16195.37,-0.00057,70.76,,,,,,,
16195.4,-0.00054,73.16,,,,,,,
16195.43,-0.00052,75.3,,,,,,,
16195.46,-0.00049,77.73,,,,,,,
16195.49,-0.00047,80.25,,,,,,,
16195.52,-0.00044,82.68,,,,,,,
16195.54,-0.00042,84.99,,,,,,,
16195.57,-0.00039,87.42,,,,,,,
16195.6,-0.00036,89.74,,,,,,,
16195.62,-0.00034,92.07,,,,,,,
16195.64,-0.00031,94.73,,,,,,,
16195.66,-0.00029,97.35,,,,,,,
16195.68,-0.00026,100.18,,,,,,,
16195.69,-0.00023,102.79,,,,,,,
16195.71,-0.00021,105.19,,,,,,,
16195.73,-0.00018,107.71,,,,,,,
16195.74,-0.00016,110.04,,,,,,,
16195.76,-0.00013,112.49,,,,,,,
16195.78,-0.00011,114.64,,,,,,,
16195.79,-8e-05,116.74,,,,,,,
16195.81,-5e-05,118.75,,,,,,,
16195.82,-5e-05,119.38,,,,,,,
16195.83,-3e-05,120.67,,,,,,,
16195.85,-0.0,122.54,,,,,,,
16195.87,2e-05,124.27,,,,,,,
16195.89,5e-05,125.83,,,,,,,
16195.92,7e-05,127.49,,,,,,,
16195.94,0.0001,129.13,,,,,,,
16195.96,0.00012,130.4,,,,,,,
16195.99,0.00015,131.9,,,,,,,
16196.02,0.00017,133.33,,,,,,,
16196.04,0.0002,134.95,,,,,,,
16196.07,0.00023,136.58,,,,,,,
16196.1,0.00025,138.14,,,,,,,
16196.12,0.00028,139.12,,,,,,,
16196.14,0.0003,140.51,,,,,,,
16196.17,0.00033,142.06,,,,,,,
16196.2,0.00035,143.7,,,,,,,
16196.22,0.00038,145.03,,,,,,,
16196.25,0.0004,146.57,,,,,,,
16196.28,0.00043,148.11,,,,,,,
16196.3,0.00046,149.43,,,,,,,
16196.31,0.00048,149.94,,,,,,,
16196.33,0.00051,151.15,,,,,,,
16196.36,0.00053,152.26,,,,,,,
16196.39,0.00056,153.44,,,,,,,
16196.42,0.00058,154.59,,,,,,,
16196.45,0.00061,155.79,,,,,,,
16196.48,0.00064,157.08,,,,,,,
16196.51,0.00066,158.51,,,,,,,
16196.53,0.00069,159.88,,,,,,,
16196.56,0.00071,161.24,,,,,,,
16196.57,0.00074,161.06,,,,,,,
16196.58,0.00077,161.28,,,,,,,
16196.58,0.0008,161.6,,,,,,,
16196.62,0.00082,162.85,,,,,,,
16196.65,0.00085,163.26,,,,,,,
16196.69,0.00087,163.49,,,,,,,
16196.73,0.0009,164.03,,,,,,,
16196.77,0.00092,165.05,,,,,,,
16196.8,0.00095,166.24,,,,,,,
16196.82,0.00097,167.39,,,,,,,
16196.82,0.00097,167.62,,,,,,,
16196.85,0.001,169.03,,,,,,,
16196.88,0.00102,170.43,,,,,,,
16196.9,0.00105,171.9,,,,,,,
16196.92,0.00108,172.07,,,,,,,
16196.92,0.00111,172.31,,,,,,,
16196.93,0.00114,172.47,,,,,,,
16196.93,0.00117,172.77,,,,,,,
16196.97,0.00119,173.81,,,,,,,
16197.01,0.00122,173.34,,,,,,,
16197.07,0.00124,172.48,,,,,,,
16197.12,0.00127,172.97,,,,,,,
16197.15,0.00129,174.15,,,,,,,
16197.18,0.00132,175.59,,,,,,,
16197.21,0.00134,177.21,,,,,,,
16197.23,0.00137,178.86,,,,,,,
16197.26,0.00139,180.65,,,,,,,
16197.28,0.00142,182.44,,,,,,,
16197.3,0.00145,180.25,,,,,,,
16197.3,0.00148,180.54,,,,,,,
16197.3,0.00151,180.72,,,,,,,
16197.31,0.00154,181.05,,,,,,,
16197.32,0.00151,181.69,,,,,,,
16197.33,0.00154,182.08,,,,,,,
16197.36,0.00157,182.87,,,,,,,
16197.4,0.00159,182.87,,,,,,,
16197.44,0.00162,182.68,,,,,,,
16197.48,0.00164,183.07,,,,,,,
16197.52,0.00167,184.0,,,,,,,
16197.55,0.00169,185.28,,,,,,,
16197.58,0.00172,186.66,,,,,,,
16197.6,0.00174,188.06,,,,,,,
16197.62,0.00177,189.31,,,,,,,
16197.64,0.0018,187.94,,,,,,,
16197.64,0.00183,188.19,,,,,,,
16197.64,0.00186,188.28,,,,,,,
16197.64,0.0019,188.36,,,,,,,
16197.64,0.00193,188.49,,,,,,,
16197.65,0.00196,188.66,,,,,,,
16197.69,0.00199,188.31,,,,,,,
16197.82,0.00198,179.03,,,,,,,
16197.89,0.00201,180.08,,,,,,,
16197.92,0.00204,182.01,,,,,,,
16197.94,0.00206,184.02,,,,,,,
16197.96,0.00209,185.91,,,,,,,
16197.98,0.00211,187.82,,,,,,,
16198.0,0.00214,189.72,,,,,,,
16198.02,0.00216,191.47,,,,,,,
16198.04,0.00219,193.12,,,,,,,
16198.07,0.00222,194.72,,,,,,,
16198.09,0.00224,196.03,,,,,,,
16198.1,0.00227,196.3,,,,,,,
16198.11,0.00229,196.7,,,,,,,
16198.12,0.00232,196.39,,,,,,,
16198.14,0.00234,196.92,,,,,,,
16198.17,0.00237,197.3,,,,,,,
16198.2,0.0024,197.31,,,,,,,
16198.25,0.00242,197.3,,,,,,,
16198.29,0.00245,197.63,,,,,,,
16198.32,0.00247,198.5,,,,,,,
16198.34,0.0025,198.1,,,,,,,
16198.35,0.00253,198.33,,,,,,,
16198.37,0.00255,199.2,,,,,,,
16198.4,0.00258,199.97,,,,,,,
16198.43,0.0026,200.67,,,,,,,
16198.46,0.00263,201.27,,,,,,,
16198.49,0.00266,201.63,,,,,,,
16198.52,0.00268,202.41,,,,,,,
16198.53,0.00271,202.36,,,,,,,
16198.54,0.00273,202.54,,,,,,,
16198.57,0.00276,203.1,,,,,,,
16198.6,0.00278,203.45,,,,,,,
16198.64,0.00281,203.67,,,,,,,
16198.67,0.00283,203.99,,,,,,,
16198.7,0.00286,204.66,,,,,,,
16198.73,0.00288,204.1,,,,,,,
