time,strain,stress,temperature,type,strain_rate,max_strain,title,youngs,poissons
0.0,5e-05,11.74,850,fatigue,0.001,0.00172,43-6,153000,0.3
0.04,7e-05,15.48,,,,,,,
0.07,0.0001,19.49,,,,,,,
0.09,0.00012,23.44,,,,,,,
0.12,0.00015,27.24,,,,,,,
0.15,0.00017,31.04,,,,,,,
0.17,0.0002,34.62,,,,,,,
0.2,0.00023,38.06,,,,,,,
0.22,0.00025,41.76,,,,,,,
0.25,0.00028,45.53,,,,,,,
0.29,0.0003,49.88,,,,,,,
0.32,0.00033,53.89,,,,,,,
0.35,0.00035,57.82,,,,,,,
0.38,0.00038,61.64,,,,,,,
0.41,0.0004,65.19,,,,,,,
0.45,0.00043,68.96,,,,,,,
0.48,0.00045,72.65,,,,,,,
0.51,0.00048,76.65,,,,,,,
0.55,0.0005,81.0,,,,,,,
0.58,0.00053,84.87,,,,,,,
0.61,0.00056,88.92,,,,,,,
0.64,0.00058,92.79,,,,,,,
0.67,0.00061,96.76,,,,,,,
0.7,0.00063,101.2,,,,,,,
0.74,0.00066,105.53,,,,,,,
0.76,0.00068,109.49,,,,,,,
0.79,0.00071,113.92,,,,,,,
0.82,0.00073,118.09,,,,,,,
0.84,0.00076,121.89,,,,,,,
0.86,0.00078,125.8,,,,,,,
0.88,0.00081,129.4,,,,,,,
0.9,0.00084,132.47,,,,,,,
0.93,0.00086,135.27,,,,,,,
1.09,0.00083,127.11,,,,,,,
1.12,0.00081,122.71,,,,,,,
1.15,0.00078,118.52,,,,,,,
1.17,0.00076,114.67,,,,,,,
1.19,0.00073,111.09,,,,,,,
1.22,0.00071,107.73,,,,,,,
1.24,0.00068,104.25,,,,,,,
1.26,0.00066,100.72,,,,,,,
1.29,0.00063,97.31,,,,,,,
1.31,0.00061,93.9,,,,,,,
1.34,0.00058,90.46,,,,,,,
1.37,0.00056,86.91,,,,,,,
1.39,0.00053,83.49,,,,,,,
1.42,0.0005,80.22,,,,,,,
1.45,0.00048,77.01,,,,,,,
1.48,0.00045,73.54,,,,,,,
1.51,0.00043,69.73,,,,,,,
1.54,0.0004,66.11,,,,,,,
1.57,0.00038,62.6,,,,,,,
1.6,0.00035,58.87,,,,,,,
1.64,0.00033,54.71,,,,,,,
1.67,0.0003,50.84,,,,,,,
1.7,0.00027,46.65,,,,,,,
1.73,0.00025,42.57,,,,,,,
1.76,0.00022,38.63,,,,,,,
1.78,0.0002,34.93,,,,,,,
1.81,0.00017,31.27,,,,,,,
1.84,0.00015,27.53,,,,,,,
1.86,0.00012,23.77,,,,,,,
1.89,0.0001,20.44,,,,,,,
1.92,7e-05,16.72,,,,,,,
1.95,5e-05,12.48,,,,,,,
1.98,2e-05,8.4,,,,,,,
2.01,-1e-05,4.18,,,,,,,
2.04,-3e-05,0.08,,,,,,,
2.07,-6e-05,-4.06,,,,,,,
2.1,-8e-05,-8.08,,,,,,,
2.13,-0.00011,-12.06,,,,,,,
2.16,-0.00013,-15.6,,,,,,,
2.2,-0.00016,-16.05,,,,,,,
2.37,-0.00018,-26.92,,,,,,,
2.39,-0.00021,-32.3,,,,,,,
2.41,-0.00023,-37.6,,,,,,,
2.42,-0.00026,-42.02,,,,,,,
2.43,-0.00029,-46.03,,,,,,,
2.44,-0.00031,-49.78,,,,,,,
2.45,-0.00034,-53.3,,,,,,,
2.47,-0.00037,-56.93,,,,,,,
2.48,-0.00039,-60.45,,,,,,,
2.5,-0.00042,-63.86,,,,,,,
2.51,-0.00044,-67.16,,,,,,,
2.53,-0.00047,-70.45,,,,,,,
2.55,-0.00049,-73.65,,,,,,,
2.58,-0.00052,-76.91,,,,,,,
2.61,-0.00054,-80.17,,,,,,,
2.65,-0.00057,-83.83,,,,,,,
2.69,-0.0006,-87.5,,,,,,,
2.73,-0.00062,-91.25,,,,,,,
2.77,-0.00065,-95.08,,,,,,,
2.81,-0.00067,-99.44,,,,,,,
2.84,-0.0007,-103.6,,,,,,,
2.86,-0.00072,-108.0,,,,,,,
2.89,-0.00075,-111.9,,,,,,,
2.91,-0.00077,-115.4,,,,,,,
2.94,-0.0008,-118.5,,,,,,,
2.99,-0.00082,-120.5,,,,,,,
3.09,-0.0008,-114.2,,,,,,,
3.13,-0.00077,-109.9,,,,,,,
3.17,-0.00075,-105.2,,,,,,,
3.19,-0.00072,-101.0,,,,,,,
3.22,-0.0007,-96.87,,,,,,,
3.25,-0.00067,-92.67,,,,,,,
3.27,-0.00064,-88.53,,,,,,,
3.3,-0.00062,-84.42,,,,,,,
3.32,-0.00059,-80.5,,,,,,,
3.35,-0.00057,-76.55,,,,,,,
3.38,-0.00054,-72.84,,,,,,,
3.4,-0.00052,-69.06,,,,,,,
3.43,-0.00049,-65.38,,,,,,,
3.46,-0.00046,-61.59,,,,,,,
3.48,-0.00044,-57.88,,,,,,,
3.51,-0.00041,-54.19,,,,,,,
3.54,-0.00039,-50.7,,,,,,,
3.57,-0.00036,-47.28,,,,,,,
3.59,-0.00034,-43.67,,,,,,,
3.62,-0.00031,-40.27,,,,,,,
3.65,-0.00029,-36.73,,,,,,,
3.68,-0.00026,-33.28,,,,,,,
3.71,-0.00024,-29.82,,,,,,,
3.74,-0.00021,-26.26,,,,,,,
3.76,-0.00018,-22.83,,,,,,,
3.79,-0.00016,-19.36,,,,,,,
3.82,-0.00013,-15.75,,,,,,,
3.85,-0.00011,-12.15,,,,,,,
3.88,-8e-05,-8.42,,,,,,,
3.91,-6e-05,-4.62,,,,,,,
3.94,-3e-05,-0.8,,,,,,,
3.97,-1e-05,3.04,,,,,,,
4.0,2e-05,6.9,,,,,,,
4.03,4e-05,10.62,,,,,,,
4.06,7e-05,14.44,,,,,,,
4.09,0.0001,18.41,,,,,,,
4.12,0.00012,22.17,,,,,,,
4.14,0.00015,25.76,,,,,,,
4.17,0.00017,29.25,,,,,,,
4.21,0.0002,31.56,,,,,,,
4.38,0.00022,37.06,,,,,,,
4.4,0.00025,43.51,,,,,,,
4.42,0.00028,48.2,,,,,,,
4.43,0.0003,52.14,,,,,,,
4.44,0.00033,55.94,,,,,,,
4.45,0.00036,59.56,,,,,,,
4.46,0.00038,63.07,,,,,,,
4.48,0.00041,66.51,,,,,,,
4.49,0.00043,70.05,,,,,,,
4.5,0.00046,73.29,,,,,,,
4.52,0.00048,76.49,,,,,,,
4.54,0.00051,79.63,,,,,,,
4.56,0.00054,82.94,,,,,,,
4.58,0.00056,86.02,,,,,,,
4.61,0.00059,89.04,,,,,,,
4.65,0.00061,92.43,,,,,,,
4.69,0.00064,96.06,,,,,,,
4.74,0.00066,100.35,,,,,,,
4.77,0.00069,104.26,,,,,,,
4.81,0.00071,107.83,,,,,,,
4.84,0.00074,111.51,,,,,,,
4.87,0.00076,115.54,,,,,,,
4.91,0.00079,119.67,,,,,,,
4.94,0.00081,123.92,,,,,,,
4.97,0.00084,127.71,,,,,,,
5.0,0.00086,131.1,,,,,,,
5.03,0.00089,134.46,,,,,,,
5.06,0.00092,137.01,,,,,,,
5.22,0.00089,129.09,,,,,,,
5.26,0.00086,124.9,,,,,,,
5.29,0.00084,120.68,,,,,,,
5.31,0.00081,116.63,,,,,,,
5.34,0.00079,112.5,,,,,,,
5.37,0.00076,108.66,,,,,,,
5.39,0.00074,105.2,,,,,,,
5.41,0.00071,101.62,,,,,,,
5.44,0.00069,97.91,,,,,,,
5.47,0.00066,94.21,,,,,,,
5.5,0.00064,90.17,,,,,,,
5.53,0.00061,86.29,,,,,,,
5.56,0.00058,82.44,,,,,,,
5.59,0.00056,78.37,,,,,,,
5.62,0.00053,74.29,,,,,,,
5.65,0.00051,70.41,,,,,,,
5.68,0.00048,66.58,,,,,,,
5.71,0.00046,62.39,,,,,,,
5.74,0.00043,58.11,,,,,,,
5.77,0.00041,54.08,,,,,,,
5.8,0.00038,50.29,,,,,,,
5.83,0.00036,46.13,,,,,,,
5.86,0.00033,41.93,,,,,,,
5.89,0.00031,37.96,,,,,,,
5.91,0.00028,33.85,,,,,,,
5.94,0.00026,30.11,,,,,,,
5.96,0.00023,26.44,,,,,,,
5.99,0.0002,22.59,,,,,,,
6.01,0.00018,18.86,,,,,,,
6.04,0.00015,14.77,,,,,,,
6.07,0.00013,10.61,,,,,,,
6.1,0.0001,6.69,,,,,,,
6.13,8e-05,2.87,,,,,,,
6.16,5e-05,-1.01,,,,,,,
6.19,3e-05,-5.01,,,,,,,
6.22,0.0,-8.73,,,,,,,
6.24,-2e-05,-12.14,,,,,,,
6.27,-5e-05,-15.12,,,,,,,
6.46,-8e-05,-18.74,,,,,,,
6.48,-0.0001,-23.77,,,,,,,
6.5,-0.00013,-28.32,,,,,,,
6.52,-0.00015,-33.9,,,,,,,
6.53,-0.00018,-38.44,,,,,,,
6.55,-0.00021,-42.14,,,,,,,
6.56,-0.00023,-45.8,,,,,,,
6.57,-0.00026,-49.18,,,,,,,
6.58,-0.00028,-52.35,,,,,,,
6.59,-0.00031,-55.58,,,,,,,
6.61,-0.00034,-58.67,,,,,,,
6.62,-0.00036,-61.54,,,,,,,
6.64,-0.00039,-64.44,,,,,,,
6.66,-0.00041,-67.04,,,,,,,
6.68,-0.00044,-69.55,,,,,,,
6.7,-0.00046,-72.14,,,,,,,
6.74,-0.00049,-74.92,,,,,,,
6.78,-0.00052,-77.72,,,,,,,
6.81,-0.00054,-80.3,,,,,,,
6.85,-0.00057,-83.21,,,,,,,
6.89,-0.00059,-86.47,,,,,,,
6.92,-0.00062,-89.85,,,,,,,
6.96,-0.00064,-93.21,,,,,,,
6.99,-0.00067,-96.73,,,,,,,
7.02,-0.00069,-100.8,,,,,,,
7.05,-0.00072,-105.2,,,,,,,
7.07,-0.00074,-109.6,,,,,,,
7.1,-0.00077,-113.9,,,,,,,
7.12,-0.00079,-118.2,,,,,,,
7.14,-0.00082,-122.3,,,,,,,
7.16,-0.00085,-126.2,,,,,,,
7.18,-0.00087,-130.0,,,,,,,
7.19,-0.0009,-133.2,,,,,,,
7.21,-0.00092,-136.0,,,,,,,
7.23,-0.00095,-138.6,,,,,,,
7.26,-0.00097,-140.6,,,,,,,
7.39,-0.00095,-130.4,,,,,,,
7.42,-0.00092,-125.4,,,,,,,
7.44,-0.0009,-121.1,,,,,,,
7.46,-0.00087,-117.1,,,,,,,
7.48,-0.00085,-113.3,,,,,,,
7.5,-0.00082,-109.8,,,,,,,
7.52,-0.0008,-105.9,,,,,,,
7.54,-0.00077,-102.3,,,,,,,
7.57,-0.00074,-98.82,,,,,,,
7.59,-0.00072,-95.45,,,,,,,
7.61,-0.00069,-92.09,,,,,,,
7.64,-0.00067,-88.73,,,,,,,
7.67,-0.00064,-85.17,,,,,,,
7.7,-0.00062,-81.69,,,,,,,
7.72,-0.00059,-78.55,,,,,,,
7.75,-0.00057,-75.65,,,,,,,
7.78,-0.00054,-72.4,,,,,,,
7.81,-0.00051,-69.02,,,,,,,
7.84,-0.00049,-65.82,,,,,,,
7.87,-0.00046,-62.49,,,,,,,
7.89,-0.00044,-59.34,,,,,,,
7.92,-0.00041,-56.18,,,,,,,
7.95,-0.00039,-52.84,,,,,,,
7.98,-0.00036,-49.62,,,,,,,
8.01,-0.00034,-46.36,,,,,,,
8.04,-0.00031,-42.91,,,,,,,
8.07,-0.00029,-39.47,,,,,,,
8.09,-0.00026,-35.73,,,,,,,
8.12,-0.00023,-32.16,,,,,,,
8.15,-0.00021,-28.6,,,,,,,
8.17,-0.00018,-25.06,,,,,,,
8.2,-0.00016,-21.42,,,,,,,
8.23,-0.00013,-17.98,,,,,,,
18.3,-0.00013,23.61,,,,,,,
18.33,-0.00011,26.92,,,,,,,
18.36,-8e-05,30.29,,,,,,,
18.39,-6e-05,32.26,,,,,,,
18.53,-3e-05,40.48,,,,,,,
18.54,-1e-05,45.16,,,,,,,
18.56,2e-05,48.95,,,,,,,
18.57,5e-05,52.62,,,,,,,
18.59,7e-05,56.02,,,,,,,
18.6,0.0001,59.41,,,,,,,
18.62,0.00012,62.82,,,,,,,
18.63,0.00015,65.99,,,,,,,
18.65,0.00018,69.24,,,,,,,
18.67,0.0002,72.38,,,,,,,
18.7,0.00023,75.44,,,,,,,
18.72,0.00025,78.54,,,,,,,
18.76,0.00028,81.95,,,,,,,
18.8,0.0003,85.44,,,,,,,
18.84,0.00033,89.46,,,,,,,
18.89,0.00035,94.01,,,,,,,
18.92,0.00038,98.23,,,,,,,
18.96,0.0004,102.42,,,,,,,
18.99,0.00043,106.27,,,,,,,
19.01,0.00045,109.83,,,,,,,
19.04,0.00048,113.5,,,,,,,
19.07,0.0005,116.78,,,,,,,
19.09,0.00053,119.89,,,,,,,
19.12,0.00056,122.98,,,,,,,
19.14,0.00058,125.6,,,,,,,
19.17,0.00061,128.12,,,,,,,
19.19,0.00063,130.64,,,,,,,
19.22,0.00066,133.27,,,,,,,
19.24,0.00068,135.47,,,,,,,
19.27,0.00071,137.78,,,,,,,
19.29,0.00073,140.07,,,,,,,
19.31,0.00076,142.51,,,,,,,
19.33,0.00079,144.9,,,,,,,
19.35,0.00081,147.11,,,,,,,
19.36,0.00084,149.12,,,,,,,
19.38,0.00086,151.0,,,,,,,
19.39,0.00089,152.92,,,,,,,
19.41,0.00092,154.86,,,,,,,
19.42,0.00094,156.63,,,,,,,
19.44,0.00097,158.52,,,,,,,
19.45,0.00099,160.23,,,,,,,
19.47,0.00102,161.85,,,,,,,
19.49,0.00104,163.36,,,,,,,
19.5,0.00107,164.91,,,,,,,
19.52,0.0011,166.37,,,,,,,
19.54,0.00112,167.96,,,,,,,
19.56,0.00115,169.22,,,,,,,
19.58,0.00117,170.3,,,,,,,
19.6,0.0012,170.98,,,,,,,
19.62,0.00122,171.27,,,,,,,
19.63,0.00125,171.4,,,,,,,
19.64,0.00128,171.48,,,,,,,
19.65,0.0013,171.55,,,,,,,
19.67,0.00133,171.68,,,,,,,
19.68,0.00136,171.67,,,,,,,
19.7,0.00138,171.6,,,,,,,
19.72,0.00141,170.98,,,,,,,
19.8,0.00139,163.98,,,,,,,
19.81,0.00138,161.74,,,,,,,
19.83,0.00136,157.57,,,,,,,
19.86,0.00133,153.44,,,,,,,
19.87,0.00131,149.7,,,,,,,
19.89,0.00128,146.25,,,,,,,
19.91,0.00125,142.82,,,,,,,
19.93,0.00123,139.4,,,,,,,
19.95,0.0012,135.92,,,,,,,
19.97,0.00118,132.26,,,,,,,
19.99,0.00115,128.86,,,,,,,
20.01,0.00113,125.71,,,,,,,
20.04,0.0011,122.21,,,,,,,
20.07,0.00107,118.64,,,,,,,
20.09,0.00105,115.19,,,,,,,
20.12,0.00102,111.67,,,,,,,
20.15,0.001,108.21,,,,,,,
20.19,0.00097,104.58,,,,,,,
20.22,0.00095,100.77,,,,,,,
20.25,0.00092,97.09,,,,,,,
20.28,0.0009,93.37,,,,,,,
20.31,0.00087,89.51,,,,,,,
20.34,0.00085,85.86,,,,,,,
20.37,0.00082,82.17,,,,,,,
20.4,0.0008,78.22,,,,,,,
20.43,0.00077,74.36,,,,,,,
20.46,0.00074,70.48,,,,,,,
20.49,0.00072,66.42,,,,,,,
20.51,0.00069,62.67,,,,,,,
20.54,0.00067,59.03,,,,,,,
20.56,0.00064,55.45,,,,,,,
20.59,0.00062,51.56,,,,,,,
20.62,0.00059,47.92,,,,,,,
20.65,0.00056,44.15,,,,,,,
20.68,0.00054,40.08,,,,,,,
20.71,0.00051,36.02,,,,,,,
20.74,0.00049,32.36,,,,,,,
20.77,0.00046,28.43,,,,,,,
20.79,0.00044,24.56,,,,,,,
20.82,0.00041,20.63,,,,,,,
20.85,0.00039,16.38,,,,,,,
20.88,0.00036,12.34,,,,,,,
20.91,0.00034,8.7,,,,,,,
20.94,0.00031,4.83,,,,,,,
20.96,0.00029,1.04,,,,,,,
20.99,0.00026,-2.45,,,,,,,
21.02,0.00023,-6.0,,,,,,,
21.04,0.00021,-9.58,,,,,,,
21.08,0.00018,-13.23,,,,,,,
21.12,0.00016,-14.78,,,,,,,
21.28,0.00013,-22.37,,,,,,,
21.31,0.00011,-27.64,,,,,,,
21.33,8e-05,-33.94,,,,,,,
21.34,6e-05,-38.55,,,,,,,
21.35,3e-05,-42.46,,,,,,,
21.37,1e-05,-46.2,,,,,,,
21.38,-2e-05,-49.94,,,,,,,
21.39,-5e-05,-53.43,,,,,,,
21.41,-7e-05,-57.19,,,,,,,
21.43,-0.0001,-60.93,,,,,,,
21.45,-0.00012,-64.44,,,,,,,
21.47,-0.00015,-67.91,,,,,,,
21.49,-0.00017,-71.32,,,,,,,
21.51,-0.0002,-74.49,,,,,,,
21.55,-0.00023,-78.65,,,,,,,
21.59,-0.00025,-82.68,,,,,,,
21.62,-0.00028,-86.08,,,,,,,
21.67,-0.0003,-90.79,,,,,,,
21.7,-0.00033,-95.05,,,,,,,
21.74,-0.00035,-99.48,,,,,,,
21.77,-0.00038,-103.5,,,,,,,
21.8,-0.0004,-107.6,,,,,,,
21.83,-0.00043,-111.4,,,,,,,
21.85,-0.00045,-115.1,,,,,,,
21.88,-0.00048,-118.7,,,,,,,
21.9,-0.00051,-121.7,,,,,,,
21.91,-0.00053,-124.2,,,,,,,
21.92,-0.00056,-126.6,,,,,,,
21.94,-0.00058,-128.6,,,,,,,
21.95,-0.00061,-130.5,,,,,,,
21.96,-0.00064,-132.3,,,,,,,
21.97,-0.00066,-134.0,,,,,,,
21.98,-0.00069,-135.6,,,,,,,
21.99,-0.00072,-137.2,,,,,,,
22.0,-0.00074,-138.8,,,,,,,
22.01,-0.00077,-140.2,,,,,,,
22.02,-0.00079,-141.8,,,,,,,
22.04,-0.00082,-143.3,,,,,,,
22.05,-0.00085,-144.7,,,,,,,
22.07,-0.00087,-146.1,,,,,,,
22.09,-0.0009,-147.3,,,,,,,
22.13,-0.00092,-148.7,,,,,,,
22.18,-0.00095,-151.2,,,,,,,
22.22,-0.00097,-153.9,,,,,,,
22.25,-0.001,-156.2,,,,,,,
22.27,-0.00103,-157.0,,,,,,,
22.28,-0.00105,-157.6,,,,,,,
22.29,-0.00108,-158.2,,,,,,,
22.29,-0.0011,-158.8,,,,,,,
22.3,-0.00113,-159.5,,,,,,,
22.32,-0.00116,-160.4,,,,,,,
22.33,-0.00118,-161.3,,,,,,,
22.35,-0.00121,-162.2,,,,,,,
22.39,-0.00123,-162.9,,,,,,,
22.51,-0.00126,-166.5,,,,,,,
22.56,-0.00128,-169.3,,,,,,,
22.6,-0.00131,-170.0,,,,,,,
22.72,-0.00128,-157.8,,,,,,,
22.74,-0.00126,-153.6,,,,,,,
22.75,-0.00123,-149.7,,,,,,,
22.77,-0.0012,-146.0,,,,,,,
22.79,-0.00118,-142.2,,,,,,,
22.81,-0.00115,-138.6,,,,,,,
22.83,-0.00113,-134.9,,,,,,,
22.85,-0.0011,-130.9,,,,,,,
22.88,-0.00108,-127.0,,,,,,,
22.9,-0.00105,-123.2,,,,,,,
22.93,-0.00103,-119.2,,,,,,,
22.95,-0.001,-115.5,,,,,,,
22.98,-0.00097,-111.9,,,,,,,
23.01,-0.00095,-108.2,,,,,,,
23.03,-0.00092,-104.6,,,,,,,
23.06,-0.0009,-101.1,,,,,,,
23.09,-0.00087,-97.54,,,,,,,
23.12,-0.00085,-93.79,,,,,,,
23.15,-0.00082,-90.25,,,,,,,
23.18,-0.0008,-86.59,,,,,,,
23.21,-0.00077,-83.04,,,,,,,
23.24,-0.00075,-79.35,,,,,,,
23.26,-0.00072,-75.71,,,,,,,
23.29,-0.00069,-72.14,,,,,,,
23.32,-0.00067,-68.65,,,,,,,
23.35,-0.00064,-65.14,,,,,,,
23.38,-0.00062,-61.43,,,,,,,
23.4,-0.00059,-57.92,,,,,,,
23.43,-0.00057,-54.48,,,,,,,
23.46,-0.00054,-50.96,,,,,,,
23.48,-0.00052,-47.45,,,,,,,
23.51,-0.00049,-43.81,,,,,,,
23.54,-0.00047,-40.19,,,,,,,
23.57,-0.00044,-36.71,,,,,,,
23.59,-0.00042,-33.3,,,,,,,
23.62,-0.00039,-29.67,,,,,,,
23.65,-0.00036,-26.06,,,,,,,
23.68,-0.00034,-22.6,,,,,,,
23.7,-0.00031,-19.15,,,,,,,
23.73,-0.00029,-15.6,,,,,,,
23.76,-0.00026,-12.14,,,,,,,
23.79,-0.00024,-8.58,,,,,,,
23.82,-0.00021,-5.04,,,,,,,
23.84,-0.00019,-1.53,,,,,,,
23.87,-0.00016,1.89,,,,,,,
47.96,-0.00014,24.05,,,,,,,
47.99,-0.00011,27.89,,,,,,,
48.02,-9e-05,31.25,,,,,,,
48.05,-6e-05,33.43,,,,,,,
48.18,-4e-05,40.13,,,,,,,
48.2,-1e-05,44.77,,,,,,,
48.21,1e-05,48.59,,,,,,,
48.22,4e-05,52.39,,,,,,,
48.24,7e-05,55.84,,,,,,,
48.25,9e-05,59.29,,,,,,,
48.27,0.00012,62.64,,,,,,,
48.28,0.00014,65.81,,,,,,,
48.3,0.00017,68.99,,,,,,,
48.32,0.00019,72.13,,,,,,,
48.34,0.00022,75.08,,,,,,,
48.37,0.00024,78.03,,,,,,,
48.4,0.00027,81.07,,,,,,,
48.44,0.0003,84.06,,,,,,,
48.48,0.00032,87.73,,,,,,,
48.52,0.00035,91.11,,,,,,,
48.55,0.00037,94.69,,,,,,,
48.59,0.0004,98.43,,,,,,,
48.62,0.00042,102.34,,,,,,,
48.65,0.00045,106.09,,,,,,,
48.69,0.00047,109.77,,,,,,,
48.72,0.0005,113.62,,,,,,,
48.75,0.00052,117.43,,,,,,,
48.78,0.00055,121.5,,,,,,,
48.81,0.00058,125.58,,,,,,,
48.84,0.0006,129.67,,,,,,,
48.87,0.00063,133.41,,,,,,,
48.9,0.00065,136.96,,,,,,,
48.92,0.00068,140.13,,,,,,,
48.95,0.0007,143.39,,,,,,,
48.97,0.00073,146.38,,,,,,,
48.99,0.00075,149.0,,,,,,,
49.0,0.00078,150.94,,,,,,,
49.01,0.00081,152.41,,,,,,,
49.02,0.00083,153.54,,,,,,,
49.03,0.00086,154.58,,,,,,,
49.04,0.00089,155.69,,,,,,,
49.05,0.00091,156.66,,,,,,,
49.05,0.00094,157.74,,,,,,,
49.06,0.00097,158.79,,,,,,,
49.07,0.00099,159.92,,,,,,,
49.08,0.00102,160.94,,,,,,,
49.1,0.00105,161.99,,,,,,,
49.11,0.00107,162.91,,,,,,,
49.13,0.0011,163.86,,,,,,,
49.17,0.00112,164.92,,,,,,,
49.23,0.00115,166.61,,,,,,,
49.29,0.00117,169.84,,,,,,,
49.32,0.0012,172.63,,,,,,,
49.34,0.00122,173.97,,,,,,,
49.35,0.00125,173.63,,,,,,,
49.36,0.00128,173.97,,,,,,,
49.36,0.00131,174.26,,,,,,,
49.37,0.00133,174.64,,,,,,,
49.37,0.00136,174.99,,,,,,,
49.37,0.00139,175.31,,,,,,,
49.38,0.00142,175.65,,,,,,,
49.38,0.00145,176.0,,,,,,,
49.39,0.00147,176.28,,,,,,,
49.4,0.0015,176.48,,,,,,,
49.42,0.00152,176.3,,,,,,,
49.44,0.00155,175.33,,,,,,,
49.52,0.00152,165.37,,,,,,,
49.55,0.0015,160.01,,,,,,,
49.58,0.00147,155.36,,,,,,,
49.6,0.00145,150.92,,,,,,,
49.62,0.00142,146.72,,,,,,,
49.64,0.0014,142.53,,,,,,,
49.66,0.00137,138.5,,,,,,,
49.68,0.00135,134.45,,,,,,,
49.7,0.00132,130.32,,,,,,,
49.73,0.0013,126.25,,,,,,,
49.75,0.00127,122.21,,,,,,,
49.78,0.00124,118.21,,,,,,,
49.8,0.00122,114.81,,,,,,,
49.8,0.00122,114.23,,,,,,,
49.83,0.00119,109.94,,,,,,,
49.86,0.00117,105.77,,,,,,,
49.89,0.00114,102.05,,,,,,,
49.92,0.00112,98.16,,,,,,,
49.94,0.00109,94.34,,,,,,,
49.97,0.00106,90.48,,,,,,,
50.0,0.00104,86.62,,,,,,,
50.03,0.00101,82.79,,,,,,,
50.06,0.00099,78.92,,,,,,,
50.09,0.00096,75.15,,,,,,,
50.12,0.00094,71.21,,,,,,,
50.14,0.00091,67.16,,,,,,,
50.17,0.00089,63.43,,,,,,,
50.2,0.00086,59.6,,,,,,,
50.23,0.00083,56.07,,,,,,,
50.25,0.00081,52.55,,,,,,,
50.28,0.00078,48.4,,,,,,,
50.31,0.00076,44.62,,,,,,,
50.33,0.00073,41.24,,,,,,,
50.36,0.00071,37.48,,,,,,,
50.39,0.00068,33.64,,,,,,,
50.42,0.00066,29.95,,,,,,,
50.44,0.00063,26.21,,,,,,,
50.47,0.0006,22.51,,,,,,,
50.5,0.00058,18.91,,,,,,,
50.53,0.00055,14.96,,,,,,,
50.56,0.00053,11.29,,,,,,,
50.59,0.0005,7.54,,,,,,,
50.62,0.00048,3.77,,,,,,,
50.64,0.00045,0.1,,,,,,,
50.67,0.00043,-3.42,,,,,,,
50.7,0.0004,-6.77,,,,,,,
50.73,0.00038,-10.24,,,,,,,
50.75,0.00035,-13.37,,,,,,,
50.9,0.00033,-15.6,,,,,,,
50.94,0.0003,-21.04,,,,,,,
50.97,0.00028,-26.11,,,,,,,
50.99,0.00025,-31.81,,,,,,,
51.0,0.00022,-36.17,,,,,,,
51.02,0.0002,-39.88,,,,,,,
51.03,0.00017,-43.26,,,,,,,
51.04,0.00014,-46.79,,,,,,,
51.06,0.00012,-50.16,,,,,,,
51.07,9e-05,-53.26,,,,,,,
51.09,7e-05,-56.48,,,,,,,
51.11,4e-05,-59.47,,,,,,,
51.13,2e-05,-62.28,,,,,,,
51.15,-1e-05,-65.15,,,,,,,
51.17,-4e-05,-67.7,,,,,,,
51.2,-6e-05,-70.54,,,,,,,
51.25,-9e-05,-74.25,,,,,,,
51.29,-0.00011,-77.79,,,,,,,
51.33,-0.00014,-81.42,,,,,,,
51.37,-0.00016,-85.01,,,,,,,
51.4,-0.00019,-88.28,,,,,,,
51.42,-0.00021,-91.36,,,,,,,
51.45,-0.00024,-94.62,,,,,,,
51.48,-0.00026,-98.11,,,,,,,
51.51,-0.00029,-101.3,,,,,,,
51.54,-0.00031,-104.6,,,,,,,
51.57,-0.00034,-108.3,,,,,,,
51.6,-0.00037,-112.4,,,,,,,
51.62,-0.00039,-116.7,,,,,,,
51.65,-0.00042,-120.8,,,,,,,
51.67,-0.00044,-124.7,,,,,,,
51.69,-0.00047,-128.6,,,,,,,
51.7,-0.00049,-132.0,,,,,,,
51.72,-0.00052,-134.8,,,,,,,
51.73,-0.00055,-137.1,,,,,,,
51.74,-0.00057,-138.9,,,,,,,
51.75,-0.0006,-140.5,,,,,,,
51.76,-0.00063,-141.9,,,,,,,
51.77,-0.00065,-143.1,,,,,,,
51.78,-0.00068,-144.2,,,,,,,
51.78,-0.00071,-145.2,,,,,,,
51.79,-0.00073,-146.2,,,,,,,
51.8,-0.00076,-147.1,,,,,,,
51.8,-0.00079,-148.0,,,,,,,
51.81,-0.00081,-148.9,,,,,,,
51.82,-0.00084,-149.8,,,,,,,
51.84,-0.00086,-150.6,,,,,,,
51.85,-0.00089,-151.3,,,,,,,
51.99,-0.00091,-150.5,,,,,,,
52.06,-0.00094,-155.5,,,,,,,
52.1,-0.00096,-159.8,,,,,,,
52.13,-0.00099,-163.1,,,,,,,
52.15,-0.00102,-163.3,,,,,,,
52.15,-0.00104,-163.7,,,,,,,
52.16,-0.00107,-164.1,,,,,,,
52.16,-0.0011,-164.5,,,,,,,
52.17,-0.00113,-164.8,,,,,,,
52.17,-0.00116,-165.2,,,,,,,
52.17,-0.00118,-165.6,,,,,,,
52.18,-0.00121,-166.1,,,,,,,
52.18,-0.00124,-166.6,,,,,,,
52.19,-0.00127,-167.1,,,,,,,
52.19,-0.00129,-167.7,,,,,,,
52.2,-0.00132,-168.1,,,,,,,
52.24,-0.00134,-167.6,,,,,,,
52.32,-0.00132,-160.7,,,,,,,
52.38,-0.00129,-158.3,,,,,,,
52.47,-0.00132,-164.4,,,,,,,
52.5,-0.00134,-167.8,,,,,,,
52.52,-0.00137,-170.0,,,,,,,
52.7,-0.00134,-158.9,,,,,,,
52.72,-0.00132,-154.6,,,,,,,
52.74,-0.00129,-150.9,,,,,,,
52.76,-0.00127,-147.0,,,,,,,
52.78,-0.00124,-143.4,,,,,,,
52.8,-0.00122,-139.8,,,,,,,
52.82,-0.00119,-136.0,,,,,,,
52.84,-0.00116,-132.2,,,,,,,
52.86,-0.00114,-128.6,,,,,,,
52.89,-0.00111,-124.9,,,,,,,
52.92,-0.00109,-121.0,,,,,,,
52.94,-0.00106,-117.4,,,,,,,
52.97,-0.00104,-113.6,,,,,,,
53.0,-0.00101,-109.6,,,,,,,
53.03,-0.00099,-105.7,,,,,,,
53.06,-0.00096,-102.1,,,,,,,
53.09,-0.00093,-98.51,,,,,,,
53.12,-0.00091,-94.74,,,,,,,
53.15,-0.00088,-90.96,,,,,,,
53.18,-0.00086,-86.56,,,,,,,
53.21,-0.00083,-82.06,,,,,,,
53.24,-0.00081,-77.92,,,,,,,
53.27,-0.00078,-73.77,,,,,,,
53.3,-0.00076,-69.94,,,,,,,
53.32,-0.00073,-66.26,,,,,,,
53.35,-0.00071,-62.44,,,,,,,
53.38,-0.00068,-58.53,,,,,,,
53.4,-0.00066,-54.72,,,,,,,
53.43,-0.00063,-50.28,,,,,,,
53.46,-0.0006,-45.94,,,,,,,
53.49,-0.00058,-42.01,,,,,,,
53.52,-0.00055,-38.1,,,,,,,
53.55,-0.00053,-33.95,,,,,,,
53.58,-0.0005,-30.02,,,,,,,
53.61,-0.00048,-25.84,,,,,,,
53.64,-0.00045,-21.62,,,,,,,
53.67,-0.00043,-17.47,,,,,,,
53.69,-0.0004,-13.4,,,,,,,
53.72,-0.00038,-8.95,,,,,,,
53.75,-0.00035,-5.34,,,,,,,
53.77,-0.00032,-1.6,,,,,,,
53.8,-0.0003,2.19,,,,,,,
53.83,-0.00027,6.44,,,,,,,
53.86,-0.00025,10.88,,,,,,,
53.89,-0.00022,14.55,,,,,,,
53.91,-0.0002,18.11,,,,,,,
108.04,-0.00014,24.96,,,,,,,
108.07,-0.00012,28.47,,,,,,,
108.1,-9e-05,31.49,,,,,,,
108.15,-7e-05,31.67,,,,,,,
108.26,-4e-05,40.32,,,,,,,
108.27,-1e-05,44.6,,,,,,,
108.29,1e-05,48.32,,,,,,,
108.3,4e-05,51.95,,,,,,,
108.31,6e-05,55.08,,,,,,,
108.33,9e-05,58.12,,,,,,,
108.34,0.00011,61.23,,,,,,,
108.36,0.00014,64.28,,,,,,,
108.38,0.00016,67.3,,,,,,,
108.4,0.00019,70.2,,,,,,,
108.42,0.00021,73.06,,,,,,,
108.45,0.00024,75.85,,,,,,,
108.48,0.00027,78.8,,,,,,,
108.52,0.00029,81.69,,,,,,,
108.56,0.00032,84.88,,,,,,,
108.59,0.00034,88.23,,,,,,,
108.63,0.00037,91.62,,,,,,,
108.67,0.00039,95.1,,,,,,,
108.7,0.00042,98.65,,,,,,,
108.73,0.00044,102.37,,,,,,,
108.76,0.00047,105.96,,,,,,,
108.79,0.00049,109.51,,,,,,,
108.82,0.00052,113.15,,,,,,,
108.85,0.00054,116.82,,,,,,,
108.88,0.00057,120.39,,,,,,,
108.91,0.00059,124.01,,,,,,,
108.94,0.00062,127.58,,,,,,,
108.97,0.00065,131.15,,,,,,,
108.99,0.00067,134.5,,,,,,,
109.02,0.0007,137.77,,,,,,,
109.05,0.00072,141.31,,,,,,,
109.08,0.00075,145.32,,,,,,,
109.1,0.00077,149.01,,,,,,,
109.12,0.0008,152.48,,,,,,,
109.14,0.00082,155.78,,,,,,,
109.16,0.00085,158.48,,,,,,,
109.17,0.00088,160.31,,,,,,,
109.18,0.0009,161.29,,,,,,,
109.19,0.00093,162.27,,,,,,,
109.2,0.00096,163.01,,,,,,,
109.2,0.00099,163.64,,,,,,,
109.21,0.00101,164.37,,,,,,,
109.21,0.00104,165.02,,,,,,,
109.21,0.00107,165.67,,,,,,,
109.22,0.00109,166.33,,,,,,,
109.23,0.00112,167.02,,,,,,,
109.23,0.00115,167.73,,,,,,,
109.24,0.00117,168.43,,,,,,,
109.25,0.0012,169.09,,,,,,,
109.27,0.00122,169.52,,,,,,,
109.44,0.00125,167.02,,,,,,,
109.5,0.00127,171.45,,,,,,,
109.53,0.0013,175.58,,,,,,,
109.56,0.00133,179.11,,,,,,,
109.58,0.00135,181.16,,,,,,,
109.59,0.00138,179.51,,,,,,,
109.6,0.00141,179.83,,,,,,,
109.6,0.00144,180.03,,,,,,,
109.6,0.00146,180.18,,,,,,,
109.61,0.00149,180.33,,,,,,,
109.61,0.00152,180.43,,,,,,,
109.61,0.00155,180.58,,,,,,,
109.62,0.00157,180.63,,,,,,,
109.63,0.0016,180.51,,,,,,,
109.64,0.00162,179.4,,,,,,,
109.69,0.0016,170.05,,,,,,,
109.7,0.00157,164.69,,,,,,,
109.72,0.00155,159.9,,,,,,,
109.73,0.00152,155.68,,,,,,,
109.74,0.00149,151.31,,,,,,,
109.75,0.00147,147.48,,,,,,,
109.76,0.00144,143.64,,,,,,,
109.77,0.00142,139.85,,,,,,,
109.78,0.00139,135.94,,,,,,,
109.8,0.00136,132.12,,,,,,,
109.8,0.00136,131.52,,,,,,,
109.81,0.00134,128.54,,,,,,,
109.82,0.00131,124.82,,,,,,,
109.83,0.00129,121.32,,,,,,,
109.85,0.00126,117.96,,,,,,,
109.86,0.00123,114.53,,,,,,,
109.88,0.00121,111.05,,,,,,,
109.89,0.00118,107.69,,,,,,,
109.91,0.00116,104.34,,,,,,,
109.94,0.00113,100.88,,,,,,,
109.96,0.00111,97.42,,,,,,,
109.99,0.00108,93.95,,,,,,,
110.02,0.00106,90.29,,,,,,,
110.06,0.00103,86.56,,,,,,,
110.09,0.00101,82.88,,,,,,,
110.13,0.00098,79.1,,,,,,,
110.16,0.00096,75.1,,,,,,,
110.19,0.00093,71.03,,,,,,,
110.22,0.0009,66.98,,,,,,,
110.25,0.00088,63.18,,,,,,,
110.28,0.00085,59.39,,,,,,,
110.31,0.00083,55.77,,,,,,,
110.33,0.0008,52.13,,,,,,,
110.36,0.00078,48.53,,,,,,,
110.39,0.00075,44.56,,,,,,,
110.42,0.00073,40.7,,,,,,,
110.45,0.0007,36.83,,,,,,,
110.48,0.00067,32.94,,,,,,,
110.5,0.00065,29.17,,,,,,,
110.53,0.00062,25.14,,,,,,,
110.56,0.0006,21.14,,,,,,,
110.59,0.00057,17.07,,,,,,,
110.62,0.00055,13.25,,,,,,,
110.65,0.00052,9.33,,,,,,,
110.68,0.0005,5.3,,,,,,,
110.71,0.00047,1.38,,,,,,,
110.74,0.00045,-2.31,,,,,,,
110.76,0.00042,-5.87,,,,,,,
110.79,0.0004,-9.26,,,,,,,
110.82,0.00037,-12.67,,,,,,,
110.85,0.00034,-14.44,,,,,,,
110.99,0.00032,-18.39,,,,,,,
111.02,0.00029,-22.74,,,,,,,
111.04,0.00027,-28.1,,,,,,,
111.06,0.00024,-32.45,,,,,,,
111.07,0.00022,-36.22,,,,,,,
111.08,0.00019,-39.49,,,,,,,
111.1,0.00016,-42.83,,,,,,,
111.11,0.00014,-46.14,,,,,,,
111.13,0.00011,-49.13,,,,,,,
111.15,9e-05,-52.3,,,,,,,
111.17,6e-05,-55.54,,,,,,,
111.19,3e-05,-58.66,,,,,,,
111.22,1e-05,-61.94,,,,,,,
111.26,-2e-05,-65.48,,,,,,,
111.3,-4e-05,-69.13,,,,,,,
111.33,-7e-05,-72.68,,,,,,,
111.37,-9e-05,-76.11,,,,,,,
111.4,-0.00012,-79.38,,,,,,,
111.43,-0.00014,-82.85,,,,,,,
111.46,-0.00017,-86.26,,,,,,,
111.49,-0.00019,-89.38,,,,,,,
111.53,-0.00022,-93.15,,,,,,,
111.56,-0.00024,-96.85,,,,,,,
111.59,-0.00027,-100.7,,,,,,,
111.62,-0.0003,-104.7,,,,,,,
111.66,-0.00032,-108.8,,,,,,,
111.68,-0.00035,-112.7,,,,,,,
111.7,-0.00037,-116.3,,,,,,,
111.72,-0.0004,-120.2,,,,,,,
111.74,-0.00042,-123.9,,,,,,,
111.76,-0.00045,-127.5,,,,,,,
111.78,-0.00047,-131.0,,,,,,,
111.79,-0.0005,-134.3,,,,,,,
111.81,-0.00053,-137.8,,,,,,,
111.83,-0.00055,-141.1,,,,,,,
111.85,-0.00058,-144.5,,,,,,,
111.86,-0.0006,-147.3,,,,,,,
111.88,-0.00063,-149.6,,,,,,,
111.89,-0.00066,-151.0,,,,,,,
111.9,-0.00068,-152.0,,,,,,,
111.9,-0.00071,-153.0,,,,,,,
111.91,-0.00073,-153.9,,,,,,,
111.92,-0.00076,-154.8,,,,,,,
111.92,-0.00079,-155.8,,,,,,,
111.93,-0.00081,-156.8,,,,,,,
111.94,-0.00084,-157.7,,,,,,,
111.96,-0.00087,-158.8,,,,,,,
111.97,-0.00089,-159.7,,,,,,,
112.0,-0.00092,-160.3,,,,,,,
112.09,-0.00094,-160.5,,,,,,,
112.17,-0.00097,-164.0,,,,,,,
112.21,-0.00099,-167.6,,,,,,,
112.23,-0.00102,-170.7,,,,,,,
112.26,-0.00104,-170.9,,,,,,,
112.27,-0.00107,-171.5,,,,,,,
112.27,-0.0011,-172.0,,,,,,,
112.28,-0.00113,-172.5,,,,,,,
112.28,-0.00116,-172.8,,,,,,,
112.28,-0.00118,-173.2,,,,,,,
112.29,-0.00122,-173.6,,,,,,,
112.29,-0.00124,-174.0,,,,,,,
112.29,-0.00127,-174.4,,,,,,,
112.3,-0.00129,-174.7,,,,,,,
112.31,-0.00132,-174.8,,,,,,,
112.32,-0.00135,-174.9,,,,,,,
112.33,-0.00137,-174.8,,,,,,,
112.45,-0.00135,-164.7,,,,,,,
112.52,-0.00132,-162.8,,,,,,,
112.59,-0.00135,-168.1,,,,,,,
112.65,-0.00137,-170.7,,,,,,,
112.77,-0.00135,-162.4,,,,,,,
112.8,-0.00132,-157.6,,,,,,,
112.82,-0.0013,-153.3,,,,,,,
112.85,-0.00127,-149.3,,,,,,,
112.87,-0.00125,-145.5,,,,,,,
112.89,-0.00122,-141.9,,,,,,,
112.91,-0.00119,-138.3,,,,,,,
112.93,-0.00117,-134.5,,,,,,,
112.95,-0.00114,-131.0,,,,,,,
112.97,-0.00112,-127.6,,,,,,,
113.0,-0.00109,-124.0,,,,,,,
113.02,-0.00107,-120.6,,,,,,,
113.05,-0.00104,-117.1,,,,,,,
113.08,-0.00102,-113.5,,,,,,,
113.11,-0.00099,-109.8,,,,,,,
113.14,-0.00096,-106.1,,,,,,,
113.17,-0.00094,-102.4,,,,,,,
113.2,-0.00091,-98.67,,,,,,,
113.23,-0.00089,-95.03,,,,,,,
113.26,-0.00086,-91.13,,,,,,,
113.29,-0.00084,-87.48,,,,,,,
113.32,-0.00081,-83.82,,,,,,,
113.34,-0.00079,-80.18,,,,,,,
113.37,-0.00076,-76.41,,,,,,,
113.4,-0.00074,-72.79,,,,,,,
113.43,-0.00071,-69.04,,,,,,,
113.46,-0.00069,-65.22,,,,,,,
113.48,-0.00066,-61.53,,,,,,,
113.51,-0.00064,-57.8,,,,,,,
113.54,-0.00061,-53.95,,,,,,,
113.57,-0.00058,-50.25,,,,,,,
113.59,-0.00056,-46.54,,,,,,,
113.62,-0.00053,-42.81,,,,,,,
113.65,-0.00051,-39.03,,,,,,,
113.68,-0.00048,-35.4,,,,,,,
113.71,-0.00046,-31.47,,,,,,,
113.73,-0.00043,-27.88,,,,,,,
113.76,-0.00041,-24.23,,,,,,,
113.79,-0.00038,-20.15,,,,,,,
113.81,-0.00035,-16.27,,,,,,,
113.84,-0.00033,-12.97,,,,,,,
113.87,-0.0003,-9.03,,,,,,,
113.9,-0.00028,-5.47,,,,,,,
113.92,-0.00025,-1.78,,,,,,,
113.96,-0.00023,1.97,,,,,,,
113.99,-0.0002,5.78,,,,,,,
114.01,-0.00018,9.55,,,,,,,
288.31,-0.00014,12.43,,,,,,,
288.34,-0.00012,16.02,,,,,,,
288.37,-9e-05,19.88,,,,,,,
288.4,-7e-05,23.59,,,,,,,
288.42,-4e-05,27.22,,,,,,,
288.46,-2e-05,30.88,,,,,,,
288.49,1e-05,33.41,,,,,,,
288.61,4e-05,39.8,,,,,,,
288.63,6e-05,44.74,,,,,,,
288.64,9e-05,48.68,,,,,,,
288.66,0.00011,52.55,,,,,,,
288.67,0.00014,55.86,,,,,,,
288.68,0.00016,59.2,,,,,,,
288.7,0.00019,62.47,,,,,,,
288.71,0.00021,65.54,,,,,,,
288.73,0.00024,68.67,,,,,,,
288.75,0.00027,71.79,,,,,,,
288.77,0.00029,74.73,,,,,,,
288.8,0.00032,77.62,,,,,,,
288.83,0.00034,80.61,,,,,,,
288.86,0.00037,83.45,,,,,,,
288.9,0.00039,86.42,,,,,,,
288.94,0.00042,89.8,,,,,,,
288.98,0.00044,93.63,,,,,,,
289.02,0.00047,97.79,,,,,,,
289.04,0.00049,101.18,,,,,,,
289.07,0.00052,104.22,,,,,,,
289.1,0.00055,107.52,,,,,,,
289.13,0.00057,110.91,,,,,,,
289.16,0.0006,114.11,,,,,,,
289.2,0.00062,117.79,,,,,,,
289.23,0.00065,121.23,,,,,,,
289.25,0.00067,124.72,,,,,,,
289.28,0.0007,128.06,,,,,,,
289.31,0.00072,131.41,,,,,,,
289.34,0.00075,134.74,,,,,,,
289.36,0.00078,137.78,,,,,,,
289.39,0.0008,140.89,,,,,,,
289.42,0.00083,144.41,,,,,,,
289.44,0.00085,147.93,,,,,,,
289.46,0.00088,151.56,,,,,,,
289.49,0.0009,155.25,,,,,,,
289.51,0.00093,158.76,,,,,,,
289.53,0.00095,162.43,,,,,,,
289.55,0.00098,165.95,,,,,,,
289.57,0.001,169.95,,,,,,,
289.59,0.00103,173.44,,,,,,,
289.61,0.00106,176.28,,,,,,,
289.62,0.00108,177.68,,,,,,,
289.63,0.00111,178.44,,,,,,,
289.64,0.00114,179.36,,,,,,,
289.64,0.00117,180.14,,,,,,,
289.65,0.00119,180.8,,,,,,,
289.65,0.00122,181.59,,,,,,,
289.66,0.00125,182.28,,,,,,,
289.66,0.00128,183.08,,,,,,,
289.67,0.0013,184.01,,,,,,,
289.68,0.00133,185.18,,,,,,,
289.7,0.00135,186.3,,,,,,,
289.75,0.00138,186.84,,,,,,,
289.8,0.00139,186.51,,,,,,,
289.87,0.0014,186.45,,,,,,,
289.99,0.00138,177.15,,,,,,,
290.02,0.00135,172.05,,,,,,,
290.05,0.00133,167.2,,,,,,,
290.08,0.0013,162.59,,,,,,,
290.1,0.00128,158.39,,,,,,,
290.12,0.00125,154.02,,,,,,,
290.15,0.00123,149.82,,,,,,,
290.17,0.0012,145.67,,,,,,,
290.2,0.00117,141.3,,,,,,,
290.23,0.00115,136.84,,,,,,,
290.25,0.00112,132.44,,,,,,,
290.28,0.0011,128.08,,,,,,,
290.31,0.00107,123.59,,,,,,,
290.34,0.00105,119.08,,,,,,,
290.37,0.00102,115.0,,,,,,,
290.4,0.00099,110.93,,,,,,,
290.42,0.00097,107.32,,,,,,,
290.45,0.00094,103.6,,,,,,,
290.47,0.00092,99.75,,,,,,,
290.5,0.00089,96.18,,,,,,,
290.52,0.00087,92.42,,,,,,,
290.55,0.00084,88.36,,,,,,,
290.58,0.00082,84.54,,,,,,,
290.61,0.00079,80.43,,,,,,,
290.64,0.00077,76.47,,,,,,,
290.67,0.00074,72.89,,,,,,,
290.7,0.00072,68.76,,,,,,,
290.72,0.00069,64.96,,,,,,,
290.75,0.00066,61.3,,,,,,,
290.78,0.00064,57.35,,,,,,,
290.81,0.00061,53.29,,,,,,,
290.84,0.00059,49.46,,,,,,,
290.86,0.00056,45.54,,,,,,,
290.89,0.00054,41.45,,,,,,,
290.92,0.00051,37.44,,,,,,,
290.95,0.00049,33.79,,,,,,,
290.98,0.00046,30.12,,,,,,,
291.0,0.00044,26.4,,,,,,,
291.03,0.00041,22.69,,,,,,,
291.06,0.00039,18.5,,,,,,,
291.09,0.00036,14.84,,,,,,,
291.11,0.00034,11.23,,,,,,,
291.14,0.00031,7.24,,,,,,,
291.17,0.00028,3.56,,,,,,,
291.2,0.00026,-0.04,,,,,,,
291.23,0.00023,-3.93,,,,,,,
291.26,0.00021,-7.67,,,,,,,
291.29,0.00018,-11.17,,,,,,,
291.32,0.00016,-14.13,,,,,,,
291.45,0.00013,-19.62,,,,,,,
291.47,0.00011,-25.29,,,,,,,
291.49,8e-05,-29.75,,,,,,,
291.51,5e-05,-33.64,,,,,,,
291.52,3e-05,-37.11,,,,,,,
291.53,0.0,-40.56,,,,,,,
291.55,-2e-05,-43.93,,,,,,,
291.57,-5e-05,-47.3,,,,,,,
291.58,-7e-05,-50.64,,,,,,,
291.6,-0.0001,-53.78,,,,,,,
291.63,-0.00012,-56.85,,,,,,,
291.65,-0.00015,-59.87,,,,,,,
291.68,-0.00018,-62.91,,,,,,,
291.71,-0.0002,-66.16,,,,,,,
291.75,-0.00023,-69.38,,,,,,,
291.78,-0.00025,-72.68,,,,,,,
291.82,-0.00028,-75.98,,,,,,,
291.86,-0.0003,-79.57,,,,,,,
291.89,-0.00033,-83.0,,,,,,,
291.92,-0.00035,-86.47,,,,,,,
291.95,-0.00038,-89.92,,,,,,,
291.99,-0.0004,-93.49,,,,,,,
292.01,-0.00043,-97.02,,,,,,,
292.04,-0.00045,-100.2,,,,,,,
292.07,-0.00048,-103.8,,,,,,,
292.1,-0.00051,-107.5,,,,,,,
292.13,-0.00053,-111.0,,,,,,,
292.16,-0.00056,-114.7,,,,,,,
292.18,-0.00058,-118.8,,,,,,,
292.21,-0.00061,-122.8,,,,,,,
292.23,-0.00063,-126.7,,,,,,,
292.25,-0.00066,-130.5,,,,,,,
292.27,-0.00069,-134.0,,,,,,,
292.28,-0.00071,-137.6,,,,,,,
292.3,-0.00074,-141.4,,,,,,,
292.32,-0.00076,-145.0,,,,,,,
292.34,-0.00079,-148.5,,,,,,,
292.35,-0.00081,-152.1,,,,,,,
292.37,-0.00084,-155.5,,,,,,,
292.39,-0.00086,-158.8,,,,,,,
292.41,-0.00089,-162.0,,,,,,,
292.42,-0.00092,-164.9,,,,,,,
292.44,-0.00094,-167.8,,,,,,,
292.46,-0.00097,-170.5,,,,,,,
292.48,-0.00099,-172.6,,,,,,,
292.49,-0.00102,-173.5,,,,,,,
292.5,-0.00104,-174.4,,,,,,,
292.51,-0.00107,-175.2,,,,,,,
292.51,-0.0011,-175.9,,,,,,,
292.52,-0.00113,-176.8,,,,,,,
292.53,-0.00115,-177.7,,,,,,,
292.54,-0.00118,-178.7,,,,,,,
292.55,-0.0012,-179.9,,,,,,,
292.59,-0.00123,-180.8,,,,,,,
292.7,-0.00125,-182.3,,,,,,,
292.75,-0.00128,-185.7,,,,,,,
292.79,-0.00131,-189.2,,,,,,,
292.82,-0.00133,-192.5,,,,,,,
292.86,-0.00136,-192.5,,,,,,,
292.88,-0.00138,-192.0,,,,,,,
292.89,-0.00141,-192.2,,,,,,,
292.9,-0.00144,-192.4,,,,,,,
292.91,-0.00146,-192.3,,,,,,,
292.93,-0.00149,-190.9,,,,,,,
292.99,-0.00146,-182.1,,,,,,,
293.01,-0.00143,-177.1,,,,,,,
293.03,-0.00141,-172.6,,,,,,,
293.04,-0.00138,-168.1,,,,,,,
293.06,-0.00136,-164.0,,,,,,,
293.07,-0.00133,-160.0,,,,,,,
293.09,-0.0013,-156.0,,,,,,,
293.1,-0.00128,-152.3,,,,,,,
293.12,-0.00125,-148.4,,,,,,,
293.14,-0.00123,-144.6,,,,,,,
293.16,-0.0012,-140.9,,,,,,,
293.18,-0.00118,-137.2,,,,,,,
293.2,-0.00115,-133.5,,,,,,,
293.22,-0.00113,-130.0,,,,,,,
293.25,-0.0011,-126.5,,,,,,,
293.27,-0.00108,-122.9,,,,,,,
293.3,-0.00105,-119.3,,,,,,,
293.33,-0.00102,-115.5,,,,,,,
293.36,-0.001,-111.6,,,,,,,
293.39,-0.00097,-108.0,,,,,,,
293.42,-0.00095,-104.2,,,,,,,
293.45,-0.00092,-100.4,,,,,,,
293.48,-0.0009,-96.51,,,,,,,
293.52,-0.00087,-92.33,,,,,,,
293.54,-0.00085,-88.37,,,,,,,
293.57,-0.00082,-84.63,,,,,,,
293.6,-0.0008,-80.68,,,,,,,
293.63,-0.00077,-76.54,,,,,,,
293.66,-0.00075,-72.53,,,,,,,
293.69,-0.00072,-68.78,,,,,,,
293.71,-0.00069,-64.75,,,,,,,
293.74,-0.00067,-61.0,,,,,,,
293.77,-0.00064,-57.35,,,,,,,
293.79,-0.00062,-53.49,,,,,,,
293.82,-0.00059,-49.77,,,,,,,
293.85,-0.00057,-46.28,,,,,,,
293.88,-0.00054,-42.37,,,,,,,
293.91,-0.00052,-38.61,,,,,,,
293.93,-0.00049,-34.96,,,,,,,
293.96,-0.00047,-31.11,,,,,,,
293.99,-0.00044,-27.25,,,,,,,
294.02,-0.00041,-23.55,,,,,,,
294.05,-0.00039,-19.67,,,,,,,
294.07,-0.00036,-15.8,,,,,,,
294.1,-0.00034,-11.96,,,,,,,
294.13,-0.00031,-8.22,,,,,,,
294.16,-0.00029,-4.31,,,,,,,
294.19,-0.00026,-0.65,,,,,,,
294.21,-0.00024,3.1,,,,,,,
294.24,-0.00021,6.86,,,,,,,
294.27,-0.00019,10.69,,,,,,,
588.73,-0.00016,3.94,,,,,,,
588.76,-0.00013,8.06,,,,,,,
588.79,-0.00011,11.83,,,,,,,
588.82,-8e-05,15.82,,,,,,,
588.85,-6e-05,20.09,,,,,,,
588.88,-3e-05,24.03,,,,,,,
588.91,-1e-05,27.82,,,,,,,
588.94,2e-05,31.51,,,,,,,
588.97,4e-05,34.06,,,,,,,
589.09,7e-05,40.75,,,,,,,
589.11,0.0001,45.63,,,,,,,
589.13,0.00012,49.79,,,,,,,
589.14,0.00015,53.59,,,,,,,
589.15,0.00017,57.12,,,,,,,
589.17,0.0002,60.75,,,,,,,
589.18,0.00023,63.92,,,,,,,
589.2,0.00025,67.17,,,,,,,
589.22,0.00028,70.5,,,,,,,
589.24,0.0003,73.52,,,,,,,
589.26,0.00033,76.63,,,,,,,
589.29,0.00036,79.8,,,,,,,
589.32,0.00038,82.8,,,,,,,
589.35,0.00041,85.75,,,,,,,
589.38,0.00043,88.78,,,,,,,
589.42,0.00046,92.17,,,,,,,
589.46,0.00048,95.92,,,,,,,
589.5,0.00051,99.74,,,,,,,
589.54,0.00053,103.67,,,,,,,
589.57,0.00056,107.3,,,,,,,
589.6,0.00058,110.76,,,,,,,
589.62,0.00061,114.18,,,,,,,
589.65,0.00063,117.75,,,,,,,
589.68,0.00066,121.2,,,,,,,
589.71,0.00068,124.59,,,,,,,
589.74,0.00071,128.14,,,,,,,
589.77,0.00073,131.52,,,,,,,
589.79,0.00076,134.88,,,,,,,
589.8,0.00076,135.25,,,,,,,
589.83,0.00078,138.6,,,,,,,
589.85,0.00081,142.11,,,,,,,
589.88,0.00084,145.67,,,,,,,
589.91,0.00086,149.75,,,,,,,
589.93,0.00089,153.96,,,,,,,
589.96,0.00091,157.55,,,,,,,
589.98,0.00094,161.31,,,,,,,
590.0,0.00096,165.37,,,,,,,
590.02,0.00099,169.29,,,,,,,
590.04,0.00101,171.58,,,,,,,
590.05,0.00104,174.82,,,,,,,
590.07,0.00107,177.59,,,,,,,
590.08,0.00109,180.27,,,,,,,
590.09,0.00112,182.5,,,,,,,
590.11,0.00114,184.02,,,,,,,
590.12,0.00117,185.14,,,,,,,
590.13,0.0012,186.62,,,,,,,
590.14,0.00123,187.84,,,,,,,
590.14,0.00125,188.89,,,,,,,
590.15,0.00128,189.81,,,,,,,
590.16,0.00131,190.67,,,,,,,
590.16,0.00133,191.5,,,,,,,
590.17,0.00136,192.26,,,,,,,
590.18,0.00139,192.99,,,,,,,
590.2,0.00141,193.7,,,,,,,
590.22,0.00144,194.08,,,,,,,
590.38,0.00141,182.27,,,,,,,
590.42,0.00138,176.92,,,,,,,
590.45,0.00136,171.86,,,,,,,
590.48,0.00133,167.16,,,,,,,
590.5,0.00131,162.32,,,,,,,
590.53,0.00128,157.74,,,,,,,
590.56,0.00126,153.02,,,,,,,
590.58,0.00123,148.4,,,,,,,
590.61,0.00121,144.42,,,,,,,
590.63,0.00118,140.39,,,,,,,
590.65,0.00115,136.87,,,,,,,
590.67,0.00113,133.44,,,,,,,
590.7,0.0011,129.8,,,,,,,
590.73,0.00108,125.94,,,,,,,
590.76,0.00105,121.93,,,,,,,
590.79,0.00103,117.95,,,,,,,
590.81,0.001,114.03,,,,,,,
590.84,0.00098,110.21,,,,,,,
590.87,0.00095,106.29,,,,,,,
590.9,0.00093,102.58,,,,,,,
590.92,0.0009,98.81,,,,,,,
590.95,0.00087,94.96,,,,,,,
590.98,0.00085,91.18,,,,,,,
591.01,0.00082,87.9,,,,,,,
591.04,0.0008,84.04,,,,,,,
591.07,0.00077,79.51,,,,,,,
591.1,0.00075,76.0,,,,,,,
591.13,0.00072,72.18,,,,,,,
591.16,0.0007,67.71,,,,,,,
591.19,0.00067,63.76,,,,,,,
591.21,0.00065,60.19,,,,,,,
591.24,0.00062,56.01,,,,,,,
591.27,0.0006,52.05,,,,,,,
591.29,0.00057,48.1,,,,,,,
591.32,0.00054,43.96,,,,,,,
591.35,0.00052,39.96,,,,,,,
591.38,0.00049,36.06,,,,,,,
591.42,0.00047,31.18,,,,,,,
591.45,0.00044,27.03,,,,,,,
591.47,0.00042,22.95,,,,,,,
591.5,0.00039,18.92,,,,,,,
591.53,0.00037,14.96,,,,,,,
591.55,0.00034,11.15,,,,,,,
591.58,0.00032,7.0,,,,,,,
591.61,0.00029,3.3,,,,,,,
591.63,0.00027,-0.57,,,,,,,
591.66,0.00024,-4.73,,,,,,,
591.7,0.00022,-8.86,,,,,,,
591.73,0.00019,-12.87,,,,,,,
591.76,0.00017,-14.98,,,,,,,
591.89,0.00014,-21.91,,,,,,,
591.91,0.00011,-27.53,,,,,,,
591.93,9e-05,-31.72,,,,,,,
591.94,6e-05,-35.59,,,,,,,
591.95,4e-05,-38.92,,,,,,,
591.97,1e-05,-42.3,,,,,,,
591.98,-1e-05,-45.78,,,,,,,
592.0,-4e-05,-49.09,,,,,,,
592.02,-7e-05,-52.44,,,,,,,
592.04,-9e-05,-55.65,,,,,,,
592.06,-0.00012,-58.81,,,,,,,
592.09,-0.00014,-62.13,,,,,,,
592.12,-0.00017,-65.31,,,,,,,
592.15,-0.00019,-68.35,,,,,,,
592.19,-0.00022,-71.37,,,,,,,
592.22,-0.00025,-74.39,,,,,,,
592.25,-0.00027,-77.6,,,,,,,
592.29,-0.0003,-81.02,,,,,,,
592.33,-0.00032,-84.7,,,,,,,
592.36,-0.00035,-88.52,,,,,,,
592.4,-0.00037,-91.99,,,,,,,
592.42,-0.0004,-95.35,,,,,,,
592.46,-0.00042,-98.97,,,,,,,
592.48,-0.00045,-102.1,,,,,,,
592.5,-0.00047,-105.1,,,,,,,
592.53,-0.0005,-108.2,,,,,,,
592.56,-0.00053,-111.2,,,,,,,
592.58,-0.00055,-114.6,,,,,,,
592.61,-0.00058,-118.3,,,,,,,
592.63,-0.0006,-122.1,,,,,,,
592.66,-0.00063,-125.9,,,,,,,
592.68,-0.00065,-129.9,,,,,,,
592.7,-0.00068,-133.6,,,,,,,
592.71,-0.00071,-137.2,,,,,,,
592.73,-0.00073,-140.7,,,,,,,
592.75,-0.00076,-144.2,,,,,,,
592.77,-0.00078,-147.7,,,,,,,
592.79,-0.00081,-151.1,,,,,,,
592.8,-0.00083,-154.4,,,,,,,
592.82,-0.00086,-157.6,,,,,,,
592.84,-0.00089,-161.0,,,,,,,
592.86,-0.00091,-164.3,,,,,,,
592.88,-0.00094,-167.4,,,,,,,
592.9,-0.00096,-170.3,,,,,,,
592.92,-0.00099,-172.7,,,,,,,
592.93,-0.00102,-174.2,,,,,,,
592.95,-0.00104,-175.2,,,,,,,
592.96,-0.00107,-175.6,,,,,,,
592.96,-0.0011,-176.4,,,,,,,
592.97,-0.00112,-177.2,,,,,,,
592.98,-0.00115,-178.0,,,,,,,
592.99,-0.00117,-179.0,,,,,,,
593.0,-0.0012,-180.0,,,,,,,
593.02,-0.00122,-180.9,,,,,,,
593.04,-0.00125,-181.5,,,,,,,
593.1,-0.00127,-181.5,,,,,,,
593.19,-0.0013,-182.8,,,,,,,
593.24,-0.00133,-185.9,,,,,,,
593.27,-0.00135,-188.7,,,,,,,
593.3,-0.00138,-190.8,,,,,,,
593.48,-0.00135,-176.2,,,,,,,
593.5,-0.00132,-171.5,,,,,,,
593.52,-0.0013,-167.1,,,,,,,
593.54,-0.00127,-162.9,,,,,,,
593.57,-0.00125,-159.0,,,,,,,
593.59,-0.00122,-155.1,,,,,,,
593.61,-0.0012,-151.3,,,,,,,
593.63,-0.00117,-147.3,,,,,,,
593.65,-0.00114,-143.4,,,,,,,
593.68,-0.00112,-139.7,,,,,,,
593.7,-0.00109,-135.9,,,,,,,
593.73,-0.00107,-132.2,,,,,,,
593.75,-0.00104,-128.6,,,,,,,
593.78,-0.00102,-125.0,,,,,,,
593.81,-0.00099,-121.3,,,,,,,
593.83,-0.00097,-117.6,,,,,,,
593.87,-0.00094,-113.2,,,,,,,
593.9,-0.00092,-108.9,,,,,,,
593.94,-0.00089,-104.6,,,,,,,
593.96,-0.00086,-100.6,,,,,,,
593.99,-0.00084,-96.55,,,,,,,
594.02,-0.00081,-92.64,,,,,,,
594.05,-0.00079,-88.65,,,,,,,
594.08,-0.00076,-84.45,,,,,,,
594.11,-0.00074,-80.66,,,,,,,
594.13,-0.00071,-77.02,,,,,,,
594.16,-0.00069,-73.06,,,,,,,
594.19,-0.00066,-69.26,,,,,,,
594.21,-0.00063,-65.07,,,,,,,
594.24,-0.00061,-61.1,,,,,,,
594.26,-0.00058,-57.63,,,,,,,
594.29,-0.00056,-54.02,,,,,,,
594.32,-0.00053,-50.56,,,,,,,
594.34,-0.00051,-46.93,,,,,,,
594.37,-0.00048,-43.27,,,,,,,
594.4,-0.00046,-39.7,,,,,,,
594.43,-0.00043,-35.82,,,,,,,
594.46,-0.0004,-31.94,,,,,,,
594.49,-0.00038,-28.17,,,,,,,
594.52,-0.00035,-24.25,,,,,,,
594.55,-0.00033,-20.39,,,,,,,
594.58,-0.0003,-16.7,,,,,,,
594.6,-0.00028,-13.17,,,,,,,
594.63,-0.00025,-9.5,,,,,,,
594.66,-0.00023,-6.03,,,,,,,
594.68,-0.0002,-2.23,,,,,,,
594.71,-0.00017,1.52,,,,,,,
1189.62,-0.00011,7.41,,,,,,,
1189.65,-9e-05,11.33,,,,,,,
1189.68,-6e-05,15.64,,,,,,,
1189.71,-4e-05,19.51,,,,,,,
1189.74,-1e-05,23.11,,,,,,,
1189.77,1e-05,27.39,,,,,,,
1189.8,3e-05,30.74,,,,,,,
1189.8,4e-05,31.35,,,,,,,
1189.84,6e-05,33.58,,,,,,,
1189.96,9e-05,42.93,,,,,,,
1189.98,0.00012,47.88,,,,,,,
1189.99,0.00014,51.93,,,,,,,
1190.0,0.00017,55.86,,,,,,,
1190.01,0.00019,59.59,,,,,,,
1190.03,0.00022,63.13,,,,,,,
1190.04,0.00024,66.45,,,,,,,
1190.06,0.00027,69.76,,,,,,,
1190.07,0.0003,73.06,,,,,,,
1190.09,0.00032,76.58,,,,,,,
1190.12,0.00035,79.76,,,,,,,
1190.14,0.00037,83.1,,,,,,,
1190.17,0.0004,86.47,,,,,,,
1190.2,0.00042,89.63,,,,,,,
1190.24,0.00045,92.53,,,,,,,
1190.29,0.00047,96.13,,,,,,,
1190.32,0.0005,99.59,,,,,,,
1190.35,0.00052,102.57,,,,,,,
1190.38,0.00055,106.06,,,,,,,
1190.41,0.00058,109.7,,,,,,,
1190.44,0.0006,113.23,,,,,,,
1190.47,0.00063,117.08,,,,,,,
1190.5,0.00065,120.76,,,,,,,
1190.54,0.00068,124.68,,,,,,,
1190.57,0.0007,128.49,,,,,,,
1190.59,0.00073,131.93,,,,,,,
1190.62,0.00075,135.4,,,,,,,
1190.65,0.00078,139.16,,,,,,,
1190.67,0.00081,142.57,,,,,,,
1190.7,0.00083,146.04,,,,,,,
1190.72,0.00086,149.37,,,,,,,
1190.75,0.00088,153.11,,,,,,,
1190.77,0.00091,157.19,,,,,,,
1190.79,0.00093,160.81,,,,,,,
1190.81,0.00096,164.25,,,,,,,
1190.83,0.00098,167.78,,,,,,,
1190.85,0.00101,171.21,,,,,,,
1190.87,0.00104,174.59,,,,,,,
1190.88,0.00106,177.69,,,,,,,
1190.9,0.00109,180.7,,,,,,,
1190.92,0.00111,183.84,,,,,,,
1190.94,0.00114,186.03,,,,,,,
1190.95,0.00117,186.9,,,,,,,
1190.96,0.00119,187.97,,,,,,,
1190.96,0.00122,188.82,,,,,,,
1190.97,0.00125,189.64,,,,,,,
1190.98,0.00127,190.59,,,,,,,
1190.99,0.0013,191.66,,,,,,,
1191.0,0.00132,192.69,,,,,,,
1191.02,0.00135,193.63,,,,,,,
1191.05,0.00137,194.18,,,,,,,
1191.16,0.0014,194.1,,,,,,,
1191.32,0.00137,180.22,,,,,,,
1191.34,0.00135,175.06,,,,,,,
1191.37,0.00132,170.63,,,,,,,
1191.39,0.0013,166.46,,,,,,,
1191.41,0.00127,162.42,,,,,,,
1191.42,0.00125,158.54,,,,,,,
1191.44,0.00122,154.84,,,,,,,
1191.46,0.0012,151.08,,,,,,,
1191.49,0.00117,147.43,,,,,,,
1191.51,0.00114,143.8,,,,,,,
1191.53,0.00112,140.25,,,,,,,
1191.56,0.00109,136.67,,,,,,,
1191.58,0.00107,133.12,,,,,,,
1191.61,0.00104,129.51,,,,,,,
1191.65,0.00102,125.63,,,,,,,
1191.68,0.00099,121.56,,,,,,,
1191.71,0.00097,117.62,,,,,,,
1191.74,0.00094,113.76,,,,,,,
1191.77,0.00091,109.5,,,,,,,
1191.8,0.00089,105.44,,,,,,,
1191.83,0.00086,101.1,,,,,,,
1191.86,0.00084,96.91,,,,,,,
1191.89,0.00081,93.19,,,,,,,
1191.91,0.00079,89.18,,,,,,,
1191.94,0.00076,85.22,,,,,,,
1191.96,0.00074,81.48,,,,,,,
1191.99,0.00071,77.3,,,,,,,
1192.02,0.00069,73.31,,,,,,,
1192.05,0.00066,69.89,,,,,,,
1192.07,0.00063,66.21,,,,,,,
1192.1,0.00061,62.55,,,,,,,
1192.12,0.00058,58.95,,,,,,,
1192.15,0.00056,55.02,,,,,,,
1192.18,0.00053,51.19,,,,,,,
1192.21,0.00051,47.48,,,,,,,
1192.23,0.00048,43.78,,,,,,,
1192.26,0.00046,39.56,,,,,,,
1192.29,0.00043,35.76,,,,,,,
1192.32,0.00041,32.05,,,,,,,
1192.35,0.00038,27.64,,,,,,,
1192.38,0.00036,23.44,,,,,,,
1192.41,0.00033,19.62,,,,,,,
1192.44,0.0003,15.73,,,,,,,
1192.46,0.00028,11.95,,,,,,,
1192.49,0.00025,8.22,,,,,,,
1192.52,0.00023,3.56,,,,,,,
1192.55,0.0002,-0.36,,,,,,,
1192.57,0.00018,-4.33,,,,,,,
1192.6,0.00015,-8.12,,,,,,,
1192.63,0.00013,-11.74,,,,,,,
1192.66,0.0001,-15.17,,,,,,,
1192.79,8e-05,-20.21,,,,,,,
1192.82,5e-05,-26.8,,,,,,,
1192.83,2e-05,-31.11,,,,,,,
1192.84,-0.0,-35.19,,,,,,,
1192.86,-3e-05,-38.68,,,,,,,
1192.87,-5e-05,-42.15,,,,,,,
1192.88,-8e-05,-45.74,,,,,,,
1192.9,-0.00011,-49.21,,,,,,,
1192.92,-0.00013,-52.46,,,,,,,
1192.94,-0.00016,-55.84,,,,,,,
1192.96,-0.00018,-59.02,,,,,,,
1192.99,-0.00021,-61.89,,,,,,,
1193.02,-0.00023,-65.25,,,,,,,
1193.05,-0.00026,-69.07,,,,,,,
1193.09,-0.00028,-72.56,,,,,,,
1193.13,-0.00031,-76.71,,,,,,,
1193.17,-0.00034,-81.14,,,,,,,
1193.21,-0.00036,-85.27,,,,,,,
1193.24,-0.00039,-89.72,,,,,,,
1193.27,-0.00041,-93.47,,,,,,,
1193.3,-0.00044,-97.18,,,,,,,
1193.33,-0.00046,-101.1,,,,,,,
1193.35,-0.00049,-104.7,,,,,,,
1193.38,-0.00051,-108.3,,,,,,,
1193.41,-0.00054,-112.2,,,,,,,
1193.44,-0.00056,-115.8,,,,,,,
1193.47,-0.00059,-119.6,,,,,,,
1193.49,-0.00062,-123.6,,,,,,,
1193.52,-0.00064,-127.8,,,,,,,
1193.54,-0.00067,-132.1,,,,,,,
1193.56,-0.00069,-135.9,,,,,,,
1193.58,-0.00072,-140.0,,,,,,,
1193.6,-0.00075,-143.8,,,,,,,
1193.62,-0.00077,-147.6,,,,,,,
1193.63,-0.0008,-151.6,,,,,,,
1193.65,-0.00082,-155.2,,,,,,,
1193.67,-0.00085,-158.6,,,,,,,
1193.69,-0.00087,-162.1,,,,,,,
1193.7,-0.0009,-165.5,,,,,,,
1193.72,-0.00092,-168.7,,,,,,,
1193.74,-0.00095,-171.9,,,,,,,
1193.76,-0.00098,-174.9,,,,,,,
1193.77,-0.001,-177.4,,,,,,,
1193.79,-0.00103,-179.4,,,,,,,
1193.8,-0.00105,-180.7,,,,,,,
1193.81,-0.00108,-181.5,,,,,,,
1193.82,-0.0011,-182.6,,,,,,,
1193.84,-0.00113,-183.6,,,,,,,
1193.85,-0.00116,-184.5,,,,,,,
1193.86,-0.00118,-185.4,,,,,,,
1193.88,-0.00121,-186.3,,,,,,,
1193.92,-0.00123,-186.8,,,,,,,
1194.01,-0.00126,-189.0,,,,,,,
1194.06,-0.00128,-193.0,,,,,,,
1194.09,-0.00131,-196.5,,,,,,,
1194.12,-0.00133,-199.8,,,,,,,
1194.14,-0.00136,-197.2,,,,,,,
1194.15,-0.00138,-198.4,,,,,,,
1194.16,-0.00141,-199.1,,,,,,,
1194.17,-0.00144,-199.5,,,,,,,
1194.17,-0.00146,-199.5,,,,,,,
1194.18,-0.00149,-199.2,,,,,,,
1194.19,-0.00152,-198.6,,,,,,,
1194.19,-0.00155,-198.3,,,,,,,
1194.2,-0.00158,-198.2,,,,,,,
1194.2,-0.00161,-198.0,,,,,,,
1194.21,-0.00164,-197.7,,,,,,,
1194.21,-0.00167,-197.3,,,,,,,
1194.22,-0.00169,-196.5,,,,,,,
1194.23,-0.00172,-193.1,,,,,,,
1194.26,-0.00169,-183.8,,,,,,,
1194.27,-0.00167,-178.1,,,,,,,
1194.28,-0.00164,-172.9,,,,,,,
1194.29,-0.00161,-168.0,,,,,,,
1194.3,-0.00159,-163.6,,,,,,,
1194.3,-0.00156,-159.2,,,,,,,
1194.31,-0.00153,-154.7,,,,,,,
1194.32,-0.00151,-150.9,,,,,,,
1194.33,-0.00148,-147.0,,,,,,,
1194.33,-0.00146,-143.4,,,,,,,
1194.34,-0.00143,-139.9,,,,,,,
1194.35,-0.0014,-135.9,,,,,,,
1194.36,-0.00137,-132.3,,,,,,,
1194.36,-0.00135,-128.8,,,,,,,
1194.37,-0.00132,-125.4,,,,,,,
1194.38,-0.00129,-122.0,,,,,,,
1194.39,-0.00127,-118.9,,,,,,,
1194.4,-0.00124,-115.7,,,,,,,
1194.41,-0.00122,-112.7,,,,,,,
1194.42,-0.00119,-109.9,,,,,,,
1194.43,-0.00116,-107.1,,,,,,,
1194.45,-0.00114,-104.4,,,,,,,
1194.47,-0.00111,-101.9,,,,,,,
1194.51,-0.00109,-99.28,,,,,,,
1194.61,-0.00106,-94.44,,,,,,,
1194.67,-0.00104,-88.5,,,,,,,
1194.7,-0.00101,-84.08,,,,,,,
1194.73,-0.00098,-79.79,,,,,,,
1194.75,-0.00096,-75.73,,,,,,,
1194.78,-0.00093,-71.7,,,,,,,
1194.8,-0.00091,-67.88,,,,,,,
1194.82,-0.00088,-64.23,,,,,,,
1194.84,-0.00086,-60.65,,,,,,,
1194.87,-0.00083,-56.84,,,,,,,
1194.89,-0.00081,-53.15,,,,,,,
1194.92,-0.00078,-49.27,,,,,,,
1194.95,-0.00075,-45.21,,,,,,,
1194.98,-0.00073,-41.31,,,,,,,
1195.01,-0.0007,-37.27,,,,,,,
1195.03,-0.00068,-33.42,,,,,,,
1195.06,-0.00065,-29.33,,,,,,,
1195.09,-0.00063,-25.31,,,,,,,
1195.12,-0.0006,-21.2,,,,,,,
1195.15,-0.00058,-16.99,,,,,,,
1195.18,-0.00055,-13.23,,,,,,,
1195.2,-0.00053,-9.34,,,,,,,
1195.23,-0.0005,-5.33,,,,,,,
1195.26,-0.00048,-1.15,,,,,,,
1195.29,-0.00045,2.75,,,,,,,
1195.31,-0.00043,6.35,,,,,,,
1195.34,-0.0004,10.1,,,,,,,
1195.36,-0.00038,13.72,,,,,,,
1195.39,-0.00035,17.37,,,,,,,
1195.42,-0.00032,20.98,,,,,,,
1195.44,-0.0003,24.61,,,,,,,
1195.47,-0.00027,28.18,,,,,,,
1195.5,-0.00025,31.43,,,,,,,
1195.54,-0.00022,32.86,,,,,,,
2992.28,-0.00011,11.49,,,,,,,
2992.3,-8e-05,14.77,,,,,,,
2992.33,-6e-05,18.3,,,,,,,
2992.35,-3e-05,21.61,,,,,,,
2992.38,-1e-05,24.87,,,,,,,
2992.41,2e-05,28.07,,,,,,,
2992.43,4e-05,30.87,,,,,,,
2992.48,7e-05,31.89,,,,,,,
2992.59,9e-05,42.64,,,,,,,
2992.6,0.00012,47.42,,,,,,,
2992.61,0.00014,51.1,,,,,,,
2992.63,0.00017,54.51,,,,,,,
2992.64,0.0002,57.76,,,,,,,
2992.65,0.00022,60.67,,,,,,,
2992.67,0.00025,63.37,,,,,,,
2992.68,0.00027,66.07,,,,,,,
2992.71,0.0003,68.78,,,,,,,
2992.73,0.00032,71.82,,,,,,,
2992.77,0.00035,75.53,,,,,,,
2992.81,0.00037,79.03,,,,,,,
2992.84,0.0004,82.83,,,,,,,
2992.87,0.00042,86.62,,,,,,,
2992.91,0.00045,90.76,,,,,,,
2992.94,0.00047,94.89,,,,,,,
2992.97,0.0005,98.85,,,,,,,
2993.0,0.00053,102.7,,,,,,,
2993.03,0.00055,106.5,,,,,,,
2993.06,0.00058,110.37,,,,,,,
2993.09,0.0006,114.12,,,,,,,
2993.12,0.00063,117.73,,,,,,,
2993.15,0.00065,121.06,,,,,,,
2993.17,0.00068,124.45,,,,,,,
2993.2,0.0007,127.86,,,,,,,
2993.23,0.00073,131.31,,,,,,,
2993.26,0.00076,134.75,,,,,,,
2993.29,0.00078,138.14,,,,,,,
2993.32,0.00081,141.55,,,,,,,
2993.35,0.00083,145.03,,,,,,,
2993.37,0.00086,148.46,,,,,,,
2993.4,0.00088,152.12,,,,,,,
2993.42,0.00091,155.66,,,,,,,
2993.44,0.00093,159.11,,,,,,,
2993.46,0.00096,162.42,,,,,,,
2993.48,0.00098,165.91,,,,,,,
2993.5,0.00101,169.09,,,,,,,
2993.52,0.00104,172.2,,,,,,,
2993.53,0.00106,175.27,,,,,,,
2993.55,0.00109,178.18,,,,,,,
2993.57,0.00111,181.26,,,,,,,
2993.59,0.00114,184.24,,,,,,,
2993.61,0.00116,186.88,,,,,,,
2993.63,0.00119,188.23,,,,,,,
2993.64,0.00122,188.9,,,,,,,
2993.65,0.00125,189.65,,,,,,,
2993.65,0.00128,190.26,,,,,,,
2993.66,0.00131,190.78,,,,,,,
2993.66,0.00133,191.26,,,,,,,
2993.67,0.00136,191.65,,,,,,,
2993.68,0.00138,191.88,,,,,,,
2993.94,0.00136,176.13,,,,,,,
2993.97,0.00133,171.34,,,,,,,
2994.0,0.00131,166.72,,,,,,,
2994.03,0.00128,162.48,,,,,,,
2994.05,0.00126,158.38,,,,,,,
2994.08,0.00123,154.5,,,,,,,
2994.1,0.0012,150.61,,,,,,,
2994.13,0.00118,146.55,,,,,,,
2994.16,0.00115,142.51,,,,,,,
2994.18,0.00113,138.62,,,,,,,
2994.21,0.0011,134.65,,,,,,,
2994.24,0.00108,130.58,,,,,,,
2994.27,0.00105,126.73,,,,,,,
2994.29,0.00103,122.78,,,,,,,
2994.32,0.001,118.71,,,,,,,
2994.35,0.00098,114.84,,,,,,,
2994.38,0.00095,110.71,,,,,,,
2994.41,0.00093,106.66,,,,,,,
2994.44,0.0009,102.67,,,,,,,
2994.46,0.00087,98.42,,,,,,,
2994.49,0.00085,94.47,,,,,,,
2994.52,0.00082,90.58,,,,,,,
2994.55,0.0008,86.58,,,,,,,
2994.57,0.00077,82.78,,,,,,,
2994.6,0.00075,78.88,,,,,,,
2994.62,0.00072,75.13,,,,,,,
2994.65,0.0007,71.12,,,,,,,
2994.68,0.00067,67.2,,,,,,,
2994.71,0.00065,63.5,,,,,,,
2994.73,0.00062,59.62,,,,,,,
2994.76,0.0006,55.87,,,,,,,
2994.79,0.00057,51.94,,,,,,,
2994.82,0.00054,48.27,,,,,,,
2994.84,0.00052,44.63,,,,,,,
2994.87,0.00049,41.23,,,,,,,
2994.9,0.00047,37.51,,,,,,,
2994.93,0.00044,33.62,,,,,,,
2994.95,0.00042,30.25,,,,,,,
2994.98,0.00039,26.43,,,,,,,
2995.01,0.00037,22.42,,,,,,,
2995.04,0.00034,18.68,,,,,,,
2995.06,0.00032,14.89,,,,,,,
2995.09,0.00029,10.87,,,,,,,
2995.12,0.00026,6.74,,,,,,,
2995.15,0.00024,2.86,,,,,,,
2995.18,0.00021,-1.07,,,,,,,
2995.21,0.00019,-5.1,,,,,,,
2995.24,0.00016,-8.98,,,,,,,
2995.26,0.00014,-12.57,,,,,,,
2995.29,0.00011,-15.2,,,,,,,
2995.41,9e-05,-21.2,,,,,,,
2995.43,6e-05,-26.62,,,,,,,
2995.45,3e-05,-31.51,,,,,,,
2995.47,1e-05,-35.57,,,,,,,
2995.48,-2e-05,-38.99,,,,,,,
2995.49,-4e-05,-42.17,,,,,,,
2995.51,-7e-05,-45.46,,,,,,,
2995.53,-0.0001,-48.61,,,,,,,
2995.55,-0.00012,-51.72,,,,,,,
2995.58,-0.00015,-55.27,,,,,,,
2995.61,-0.00017,-58.81,,,,,,,
2995.64,-0.0002,-62.51,,,,,,,
2995.67,-0.00022,-65.93,,,,,,,
2995.71,-0.00025,-69.28,,,,,,,
2995.74,-0.00027,-73.14,,,,,,,
2995.77,-0.0003,-77.02,,,,,,,
2995.8,-0.00032,-80.64,,,,,,,
2995.83,-0.00035,-84.05,,,,,,,
2995.86,-0.00037,-87.46,,,,,,,
2995.89,-0.0004,-90.95,,,,,,,
2995.92,-0.00042,-94.4,,,,,,,
2995.95,-0.00045,-98.24,,,,,,,
2995.98,-0.00048,-101.8,,,,,,,
2996.01,-0.0005,-105.4,,,,,,,
2996.04,-0.00053,-109.1,,,,,,,
2996.07,-0.00055,-112.6,,,,,,,
2996.09,-0.00058,-116.2,,,,,,,
2996.12,-0.0006,-119.7,,,,,,,
2996.14,-0.00063,-123.7,,,,,,,
2996.16,-0.00065,-127.6,,,,,,,
2996.18,-0.00068,-131.1,,,,,,,
2996.2,-0.00071,-134.8,,,,,,,
2996.22,-0.00073,-138.3,,,,,,,
2996.24,-0.00076,-141.6,,,,,,,
2996.26,-0.00078,-144.8,,,,,,,
2996.28,-0.00081,-148.0,,,,,,,
2996.29,-0.00084,-151.3,,,,,,,
2996.32,-0.00086,-154.7,,,,,,,
2996.34,-0.00089,-158.0,,,,,,,
2996.36,-0.00091,-161.1,,,,,,,
2996.38,-0.00094,-164.2,,,,,,,
2996.4,-0.00096,-167.4,,,,,,,
2996.42,-0.00099,-170.4,,,,,,,
2996.44,-0.00101,-173.3,,,,,,,
2996.46,-0.00104,-176.3,,,,,,,
2996.48,-0.00106,-179.1,,,,,,,
2996.51,-0.00109,-182.0,,,,,,,
2996.53,-0.00112,-184.3,,,,,,,
2996.54,-0.00114,-185.1,,,,,,,
2996.55,-0.00117,-185.9,,,,,,,
2996.56,-0.00119,-186.5,,,,,,,
2996.57,-0.00122,-187.1,,,,,,,
2996.57,-0.00125,-187.6,,,,,,,
2996.58,-0.00128,-188.0,,,,,,,
2996.59,-0.0013,-188.2,,,,,,,
2996.75,-0.00133,-189.1,,,,,,,
2996.78,-0.00135,-193.0,,,,,,,
2996.81,-0.00138,-195.8,,,,,,,
2996.84,-0.0014,-196.4,,,,,,,
2996.92,-0.00138,-187.3,,,,,,,
2996.95,-0.00135,-182.8,,,,,,,
2996.97,-0.00133,-178.5,,,,,,,
2997.0,-0.0013,-174.4,,,,,,,
2997.02,-0.00128,-170.5,,,,,,,
2997.05,-0.00125,-166.4,,,,,,,
2997.08,-0.00122,-162.5,,,,,,,
2997.11,-0.0012,-158.4,,,,,,,
2997.14,-0.00117,-154.0,,,,,,,
2997.16,-0.00115,-149.9,,,,,,,
2997.19,-0.00112,-145.8,,,,,,,
2997.22,-0.0011,-141.8,,,,,,,
2997.24,-0.00107,-137.9,,,,,,,
2997.27,-0.00105,-134.0,,,,,,,
2997.3,-0.00102,-130.3,,,,,,,
2997.32,-0.001,-126.5,,,,,,,
2997.35,-0.00097,-122.8,,,,,,,
2997.38,-0.00095,-119.1,,,,,,,
2997.4,-0.00092,-115.4,,,,,,,
2997.43,-0.00089,-112.0,,,,,,,
2997.46,-0.00087,-108.3,,,,,,,
2997.48,-0.00084,-104.7,,,,,,,
2997.51,-0.00082,-101.0,,,,,,,
2997.54,-0.00079,-97.39,,,,,,,
2997.57,-0.00077,-93.51,,,,,,,
2997.6,-0.00074,-89.65,,,,,,,
2997.62,-0.00072,-85.98,,,,,,,
2997.65,-0.00069,-81.93,,,,,,,
2997.68,-0.00067,-78.14,,,,,,,
2997.71,-0.00064,-74.45,,,,,,,
2997.74,-0.00061,-70.54,,,,,,,
2997.76,-0.00059,-66.75,,,,,,,
2997.79,-0.00056,-62.87,,,,,,,
2997.82,-0.00054,-59.14,,,,,,,
2997.84,-0.00051,-55.42,,,,,,,
2997.87,-0.00049,-51.71,,,,,,,
2997.9,-0.00046,-48.15,,,,,,,
2997.92,-0.00044,-44.48,,,,,,,
2997.95,-0.00041,-40.8,,,,,,,
2997.98,-0.00039,-37.15,,,,,,,
2998.01,-0.00036,-33.26,,,,,,,
2998.03,-0.00034,-29.6,,,,,,,
2998.06,-0.00031,-25.78,,,,,,,
2998.09,-0.00029,-21.99,,,,,,,
2998.12,-0.00026,-18.31,,,,,,,
2998.14,-0.00023,-14.56,,,,,,,
2998.17,-0.00021,-11.01,,,,,,,
2998.2,-0.00018,-7.19,,,,,,,
2998.23,-0.00016,-3.56,,,,,,,
2998.25,-0.00013,0.36,,,,,,,
5996.67,-0.00013,10.72,,,,,,,
5996.7,-0.0001,14.52,,,,,,,
5996.72,-8e-05,18.22,,,,,,,
5996.75,-5e-05,22.24,,,,,,,
5996.78,-3e-05,26.14,,,,,,,
5996.82,-0.0,30.19,,,,,,,
5996.85,2e-05,33.21,,,,,,,
5996.96,5e-05,40.33,,,,,,,
5996.98,8e-05,46.12,,,,,,,
5997.0,0.0001,50.6,,,,,,,
5997.01,0.00013,54.21,,,,,,,
5997.02,0.00015,57.51,,,,,,,
5997.03,0.00018,60.78,,,,,,,
5997.05,0.0002,63.73,,,,,,,
5997.06,0.00023,66.67,,,,,,,
5997.08,0.00026,69.67,,,,,,,
5997.11,0.00028,72.86,,,,,,,
5997.14,0.00031,76.08,,,,,,,
5997.17,0.00033,79.46,,,,,,,
5997.21,0.00036,83.08,,,,,,,
5997.24,0.00038,86.67,,,,,,,
5997.27,0.00041,90.42,,,,,,,
5997.3,0.00043,94.21,,,,,,,
5997.33,0.00046,98.07,,,,,,,
5997.36,0.00048,101.73,,,,,,,
5997.39,0.00051,105.38,,,,,,,
5997.42,0.00054,108.87,,,,,,,
5997.45,0.00056,112.64,,,,,,,
5997.48,0.00059,116.17,,,,,,,
5997.51,0.00061,119.65,,,,,,,
5997.54,0.00064,123.11,,,,,,,
5997.57,0.00066,126.81,,,,,,,
5997.6,0.00069,130.35,,,,,,,
5997.63,0.00071,134.17,,,,,,,
5997.66,0.00074,137.71,,,,,,,
5997.69,0.00077,141.1,,,,,,,
5997.71,0.00079,144.41,,,,,,,
5997.74,0.00082,147.57,,,,,,,
5997.76,0.00084,150.8,,,,,,,
5997.79,0.00087,154.4,,,,,,,
5997.81,0.00089,158.03,,,,,,,
5997.83,0.00092,161.48,,,,,,,
5997.85,0.00094,164.84,,,,,,,
5997.87,0.00097,168.24,,,,,,,
5997.89,0.001,171.37,,,,,,,
5997.91,0.00102,174.64,,,,,,,
5997.93,0.00105,177.93,,,,,,,
5997.95,0.00107,181.16,,,,,,,
5997.97,0.0011,184.43,,,,,,,
5997.99,0.00112,187.39,,,,,,,
5998.0,0.00115,189.01,,,,,,,
5998.02,0.00118,189.99,,,,,,,
5998.02,0.0012,190.77,,,,,,,
5998.03,0.00123,191.43,,,,,,,
5998.04,0.00125,192.23,,,,,,,
5998.04,0.00128,192.96,,,,,,,
5998.05,0.0013,193.57,,,,,,,
5998.08,0.00133,193.86,,,,,,,
5998.17,0.00136,195.09,,,,,,,
5998.2,0.00138,197.79,,,,,,,
5998.24,0.00141,198.51,,,,,,,
5998.34,0.00138,185.98,,,,,,,
5998.37,0.00136,181.2,,,,,,,
5998.39,0.00133,176.75,,,,,,,
5998.41,0.0013,172.28,,,,,,,
5998.44,0.00128,168.24,,,,,,,
5998.46,0.00125,163.97,,,,,,,
5998.49,0.00123,159.78,,,,,,,
5998.52,0.0012,155.51,,,,,,,
5998.54,0.00118,151.0,,,,,,,
5998.57,0.00115,146.73,,,,,,,
5998.6,0.00113,142.46,,,,,,,
5998.63,0.0011,138.41,,,,,,,
5998.65,0.00108,134.61,,,,,,,
5998.68,0.00105,130.74,,,,,,,
5998.71,0.00103,126.15,,,,,,,
5998.74,0.001,121.99,,,,,,,
5998.76,0.00097,118.22,,,,,,,
5998.79,0.00095,114.3,,,,,,,
5998.82,0.00092,110.34,,,,,,,
5998.84,0.0009,106.56,,,,,,,
5998.87,0.00087,102.46,,,,,,,
5998.9,0.00085,98.4,,,,,,,
5998.93,0.00082,94.52,,,,,,,
5998.95,0.0008,90.79,,,,,,,
5998.98,0.00077,87.17,,,,,,,
5999.0,0.00075,83.8,,,,,,,
5999.03,0.00072,80.09,,,,,,,
5999.06,0.0007,76.37,,,,,,,
5999.09,0.00067,72.22,,,,,,,
5999.12,0.00064,68.29,,,,,,,
5999.15,0.00062,64.45,,,,,,,
5999.18,0.00059,60.45,,,,,,,
5999.21,0.00057,56.11,,,,,,,
5999.23,0.00054,52.12,,,,,,,
5999.26,0.00052,48.38,,,,,,,
5999.28,0.00049,44.72,,,,,,,
5999.31,0.00047,41.11,,,,,,,
5999.33,0.00044,37.48,,,,,,,
5999.36,0.00042,33.69,,,,,,,
5999.39,0.00039,29.81,,,,,,,
5999.42,0.00037,26.21,,,,,,,
5999.45,0.00034,22.62,,,,,,,
5999.48,0.00031,18.32,,,,,,,
5999.51,0.00029,14.5,,,,,,,
5999.54,0.00026,10.74,,,,,,,
5999.56,0.00024,6.72,,,,,,,
5999.59,0.00021,3.1,,,,,,,
5999.61,0.00019,-0.15,,,,,,,
5999.64,0.00016,-3.31,,,,,,,
5999.66,0.00014,-6.57,,,,,,,
5999.69,0.00011,-10.01,,,,,,,
5999.72,9e-05,-13.33,,,,,,,
5999.75,6e-05,-14.25,,,,,,,
5999.8,6e-05,-12.78,,,,,,,
5999.86,3e-05,-19.04,,,,,,,
5999.88,1e-05,-24.36,,,,,,,
5999.9,-2e-05,-29.04,,,,,,,
5999.91,-4e-05,-32.58,,,,,,,
5999.92,-7e-05,-35.95,,,,,,,
5999.94,-9e-05,-38.72,,,,,,,
5999.95,-0.00012,-41.26,,,,,,,
5999.97,-0.00015,-44.26,,,,,,,
6000.0,-0.00017,-47.44,,,,,,,
6000.02,-0.0002,-50.42,,,,,,,
6000.05,-0.00022,-53.46,,,,,,,
6000.09,-0.00025,-56.95,,,,,,,
6000.12,-0.00027,-59.92,,,,,,,
6000.16,-0.0003,-63.38,,,,,,,
6000.19,-0.00032,-67.16,,,,,,,
6000.22,-0.00035,-70.75,,,,,,,
6000.25,-0.00038,-74.4,,,,,,,
6000.28,-0.0004,-77.76,,,,,,,
6000.31,-0.00043,-81.28,,,,,,,
6000.34,-0.00045,-84.81,,,,,,,
6000.37,-0.00048,-88.18,,,,,,,
6000.4,-0.0005,-92.09,,,,,,,
6000.43,-0.00053,-95.63,,,,,,,
6000.46,-0.00055,-99.43,,,,,,,
6000.5,-0.00058,-103.5,,,,,,,
6000.52,-0.0006,-107.0,,,,,,,
6000.55,-0.00063,-110.8,,,,,,,
6000.58,-0.00065,-114.3,,,,,,,
6000.6,-0.00068,-118.0,,,,,,,
6000.63,-0.00071,-122.2,,,,,,,
6000.65,-0.00073,-126.1,,,,,,,
6000.67,-0.00076,-130.3,,,,,,,
6000.69,-0.00078,-134.1,,,,,,,
6000.71,-0.00081,-138.0,,,,,,,
6000.73,-0.00083,-141.4,,,,,,,
6000.75,-0.00086,-144.9,,,,,,,
6000.77,-0.00088,-148.1,,,,,,,
6000.78,-0.00091,-151.4,,,,,,,
6000.81,-0.00094,-155.2,,,,,,,
6000.83,-0.00096,-158.8,,,,,,,
6000.85,-0.00099,-162.4,,,,,,,
6000.87,-0.00101,-166.2,,,,,,,
6000.9,-0.00104,-170.0,,,,,,,
6000.92,-0.00106,-173.7,,,,,,,
6000.94,-0.00109,-177.2,,,,,,,
6000.96,-0.00112,-180.5,,,,,,,
6000.98,-0.00114,-182.8,,,,,,,
6001.0,-0.00117,-184.4,,,,,,,
6001.01,-0.00119,-185.6,,,,,,,
6001.02,-0.00122,-186.6,,,,,,,
6001.02,-0.00124,-187.5,,,,,,,
6001.04,-0.00127,-188.4,,,,,,,
6001.05,-0.0013,-189.2,,,,,,,
6001.07,-0.00132,-189.7,,,,,,,
6001.16,-0.00135,-191.7,,,,,,,
6001.21,-0.00137,-196.0,,,,,,,
6001.25,-0.0014,-197.2,,,,,,,
6001.33,-0.00137,-188.9,,,,,,,
6001.36,-0.00135,-184.1,,,,,,,
6001.39,-0.00132,-179.8,,,,,,,
6001.41,-0.00129,-175.9,,,,,,,
6001.44,-0.00127,-172.2,,,,,,,
6001.46,-0.00124,-168.4,,,,,,,
6001.49,-0.00122,-164.8,,,,,,,
6001.51,-0.00119,-161.0,,,,,,,
6001.54,-0.00117,-157.0,,,,,,,
6001.57,-0.00114,-153.0,,,,,,,
6001.6,-0.00112,-148.9,,,,,,,
6001.63,-0.00109,-144.8,,,,,,,
6001.66,-0.00107,-140.9,,,,,,,
6001.68,-0.00104,-137.2,,,,,,,
6001.71,-0.00101,-133.4,,,,,,,
6001.74,-0.00099,-129.5,,,,,,,
6001.77,-0.00096,-125.5,,,,,,,
6001.8,-0.00094,-121.3,,,,,,,
6001.83,-0.00091,-117.2,,,,,,,
6001.85,-0.00089,-113.4,,,,,,,
6001.88,-0.00086,-109.6,,,,,,,
6001.91,-0.00084,-105.5,,,,,,,
6001.93,-0.00081,-102.2,,,,,,,
6001.96,-0.00078,-98.69,,,,,,,
6001.98,-0.00076,-94.89,,,,,,,
6002.01,-0.00073,-91.25,,,,,,,
6002.04,-0.00071,-87.56,,,,,,,
6002.07,-0.00068,-83.48,,,,,,,
6002.09,-0.00066,-79.66,,,,,,,
6002.12,-0.00063,-75.77,,,,,,,
6002.15,-0.00061,-71.44,,,,,,,
6002.18,-0.00058,-67.24,,,,,,,
6002.21,-0.00056,-63.19,,,,,,,
6002.24,-0.00053,-58.97,,,,,,,
6002.27,-0.00051,-54.78,,,,,,,
6002.29,-0.00048,-50.66,,,,,,,
6002.32,-0.00045,-46.91,,,,,,,
6002.34,-0.00043,-43.22,,,,,,,
6002.37,-0.0004,-39.47,,,,,,,
6002.4,-0.00038,-35.73,,,,,,,
6002.43,-0.00035,-31.91,,,,,,,
6002.45,-0.00033,-28.44,,,,,,,
6002.48,-0.0003,-24.52,,,,,,,
6002.51,-0.00028,-20.72,,,,,,,
6002.54,-0.00025,-16.95,,,,,,,
6002.56,-0.00023,-13.39,,,,,,,
6002.59,-0.0002,-9.89,,,,,,,
6002.61,-0.00017,-6.54,,,,,,,
6002.64,-0.00015,-3.03,,,,,,,
6002.67,-0.00012,1.25,,,,,,,
12005.47,-0.00011,12.64,,,,,,,
12005.5,-9e-05,15.86,,,,,,,
12005.53,-6e-05,19.38,,,,,,,
12005.55,-4e-05,22.72,,,,,,,
12005.58,-1e-05,26.26,,,,,,,
12005.61,1e-05,29.54,,,,,,,
12005.64,4e-05,31.89,,,,,,,
12005.76,6e-05,37.12,,,,,,,
12005.78,9e-05,42.56,,,,,,,
12005.79,0.00012,47.05,,,,,,,
12005.81,0.00014,50.89,,,,,,,
12005.82,0.00017,54.29,,,,,,,
12005.83,0.0002,57.34,,,,,,,
12005.85,0.00022,60.15,,,,,,,
12005.86,0.00025,62.75,,,,,,,
12005.88,0.00027,65.31,,,,,,,
12005.91,0.0003,68.44,,,,,,,
12005.95,0.00032,72.17,,,,,,,
12005.99,0.00035,76.0,,,,,,,
12006.02,0.00037,79.86,,,,,,,
12006.05,0.0004,83.89,,,,,,,
12006.09,0.00043,88.18,,,,,,,
12006.12,0.00045,92.11,,,,,,,
12006.15,0.00048,95.7,,,,,,,
12006.18,0.0005,99.43,,,,,,,
12006.2,0.00053,103.04,,,,,,,
12006.24,0.00055,106.96,,,,,,,
12006.27,0.00058,110.79,,,,,,,
12006.3,0.0006,114.48,,,,,,,
12006.32,0.00063,117.71,,,,,,,
12006.35,0.00065,120.85,,,,,,,
12006.37,0.00068,123.88,,,,,,,
12006.4,0.0007,127.06,,,,,,,
12006.43,0.00073,130.38,,,,,,,
12006.46,0.00075,133.87,,,,,,,
12006.49,0.00078,137.28,,,,,,,
12006.52,0.0008,140.86,,,,,,,
12006.55,0.00083,144.41,,,,,,,
12006.58,0.00086,148.01,,,,,,,
12006.6,0.00088,151.76,,,,,,,
12006.62,0.00091,155.25,,,,,,,
12006.64,0.00093,158.66,,,,,,,
12006.66,0.00096,162.05,,,,,,,
12006.68,0.00098,165.57,,,,,,,
12006.7,0.00101,168.96,,,,,,,
12006.72,0.00103,172.27,,,,,,,
12006.74,0.00106,175.69,,,,,,,
12006.76,0.00109,179.0,,,,,,,
12006.78,0.00111,182.31,,,,,,,
12006.8,0.00114,185.53,,,,,,,
12006.82,0.00116,188.39,,,,,,,
12006.84,0.00119,190.19,,,,,,,
12006.85,0.00121,191.14,,,,,,,
12006.86,0.00124,191.97,,,,,,,
12006.86,0.00127,192.76,,,,,,,
12006.87,0.00129,193.46,,,,,,,
12006.88,0.00132,194.24,,,,,,,
12006.89,0.00135,194.93,,,,,,,
12006.91,0.00137,195.31,,,,,,,
12007.0,0.0014,196.03,,,,,,,
12007.13,0.00137,183.94,,,,,,,
12007.16,0.00134,179.76,,,,,,,
12007.18,0.00132,175.72,,,,,,,
12007.21,0.00129,171.83,,,,,,,
12007.23,0.00127,167.95,,,,,,,
12007.26,0.00124,163.58,,,,,,,
12007.29,0.00122,159.54,,,,,,,
12007.32,0.00119,155.48,,,,,,,
12007.34,0.00117,151.5,,,,,,,
12007.37,0.00114,147.62,,,,,,,
12007.4,0.00112,143.49,,,,,,,
12007.43,0.00109,139.17,,,,,,,
12007.46,0.00106,135.19,,,,,,,
12007.49,0.00104,131.06,,,,,,,
12007.52,0.00101,127.15,,,,,,,
12007.54,0.00099,123.26,,,,,,,
12007.57,0.00096,119.3,,,,,,,
12007.6,0.00094,115.5,,,,,,,
12007.63,0.00091,111.44,,,,,,,
12007.65,0.00089,107.41,,,,,,,
12007.68,0.00086,103.22,,,,,,,
12007.71,0.00084,99.17,,,,,,,
12007.74,0.00081,95.35,,,,,,,
12007.76,0.00078,91.6,,,,,,,
12007.79,0.00076,87.54,,,,,,,
12007.82,0.00073,83.55,,,,,,,
12007.85,0.00071,79.73,,,,,,,
12007.87,0.00068,75.93,,,,,,,
12007.9,0.00066,71.88,,,,,,,
12007.93,0.00063,67.74,,,,,,,
12007.96,0.00061,63.69,,,,,,,
12007.99,0.00058,59.78,,,,,,,
12008.01,0.00055,55.73,,,,,,,
12008.04,0.00053,51.8,,,,,,,
12008.07,0.0005,48.1,,,,,,,
12008.09,0.00048,44.23,,,,,,,
12008.12,0.00045,40.35,,,,,,,
12008.15,0.00043,36.42,,,,,,,
12008.18,0.0004,32.37,,,,,,,
12008.21,0.00038,28.39,,,,,,,
12008.23,0.00035,24.51,,,,,,,
12008.26,0.00033,20.81,,,,,,,
12008.29,0.0003,16.61,,,,,,,
12008.32,0.00028,12.82,,,,,,,
12008.34,0.00025,8.9,,,,,,,
12008.37,0.00023,4.96,,,,,,,
12008.4,0.0002,1.39,,,,,,,
12008.43,0.00018,-2.3,,,,,,,
12008.45,0.00015,-6.11,,,,,,,
12008.48,0.00012,-10.09,,,,,,,
12008.51,0.0001,-13.69,,,,,,,
12008.55,7e-05,-15.03,,,,,,,
12008.66,5e-05,-23.02,,,,,,,
12008.68,2e-05,-28.45,,,,,,,
12008.69,-0.0,-32.87,,,,,,,
12008.7,-3e-05,-36.51,,,,,,,
12008.72,-5e-05,-39.67,,,,,,,
12008.73,-8e-05,-42.87,,,,,,,
12008.75,-0.00011,-46.05,,,,,,,
12008.77,-0.00013,-48.88,,,,,,,
12008.79,-0.00016,-52.04,,,,,,,
12008.82,-0.00018,-55.33,,,,,,,
12008.85,-0.00021,-58.81,,,,,,,
12008.89,-0.00023,-62.79,,,,,,,
12008.92,-0.00026,-66.6,,,,,,,
12008.95,-0.00028,-70.29,,,,,,,
12008.98,-0.00031,-73.76,,,,,,,
12009.01,-0.00033,-77.3,,,,,,,
12009.04,-0.00036,-81.17,,,,,,,
12009.07,-0.00039,-84.76,,,,,,,
12009.1,-0.00041,-88.42,,,,,,,
12009.13,-0.00044,-91.55,,,,,,,
12009.16,-0.00046,-95.21,,,,,,,
12009.19,-0.00049,-98.82,,,,,,,
12009.22,-0.00051,-102.3,,,,,,,
12009.25,-0.00054,-106.0,,,,,,,
12009.28,-0.00056,-109.4,,,,,,,
12009.31,-0.00059,-113.0,,,,,,,
12009.33,-0.00061,-116.5,,,,,,,
12009.36,-0.00064,-120.1,,,,,,,
12009.38,-0.00067,-123.9,,,,,,,
12009.4,-0.00069,-127.6,,,,,,,
12009.42,-0.00072,-131.3,,,,,,,
12009.44,-0.00074,-134.7,,,,,,,
12009.46,-0.00077,-138.3,,,,,,,
12009.48,-0.00079,-141.5,,,,,,,
12009.5,-0.00082,-144.5,,,,,,,
12009.51,-0.00084,-147.6,,,,,,,
12009.53,-0.00087,-151.1,,,,,,,
12009.56,-0.00089,-154.5,,,,,,,
12009.57,-0.00092,-157.5,,,,,,,
12009.6,-0.00095,-160.7,,,,,,,
12009.62,-0.00097,-164.4,,,,,,,
12009.64,-0.001,-167.7,,,,,,,
12009.66,-0.00102,-171.0,,,,,,,
12009.68,-0.00105,-174.0,,,,,,,
12009.7,-0.00107,-176.8,,,,,,,
12009.72,-0.0011,-179.9,,,,,,,
12009.74,-0.00112,-182.5,,,,,,,
12009.76,-0.00115,-184.4,,,,,,,
12009.78,-0.00118,-185.7,,,,,,,
12009.79,-0.0012,-186.2,,,,,,,
12009.8,-0.00123,-186.9,,,,,,,
12009.8,-0.00124,-187.1,,,,,,,
12009.8,-0.00125,-187.5,,,,,,,
12009.81,-0.00128,-188.2,,,,,,,
12009.83,-0.00131,-188.6,,,,,,,
12009.92,-0.00133,-188.9,,,,,,,
12009.97,-0.00136,-192.4,,,,,,,
12010.0,-0.00138,-195.3,,,,,,,
12010.03,-0.00141,-196.5,,,,,,,
12010.14,-0.00138,-183.8,,,,,,,
12010.16,-0.00136,-179.1,,,,,,,
12010.18,-0.00133,-175.2,,,,,,,
12010.2,-0.00131,-171.1,,,,,,,
12010.23,-0.00128,-167.0,,,,,,,
12010.26,-0.00125,-162.7,,,,,,,
12010.28,-0.00123,-158.5,,,,,,,
12010.31,-0.0012,-154.6,,,,,,,
12010.34,-0.00118,-150.8,,,,,,,
12010.36,-0.00115,-146.8,,,,,,,
12010.39,-0.00113,-142.8,,,,,,,
12010.42,-0.0011,-138.6,,,,,,,
12010.45,-0.00108,-134.4,,,,,,,
12010.48,-0.00105,-130.5,,,,,,,
12010.5,-0.00103,-126.3,,,,,,,
12010.53,-0.001,-121.8,,,,,,,
12010.56,-0.00098,-117.8,,,,,,,
12010.59,-0.00095,-113.8,,,,,,,
12010.61,-0.00092,-109.8,,,,,,,
12010.64,-0.0009,-105.6,,,,,,,
12010.67,-0.00087,-101.4,,,,,,,
12010.7,-0.00085,-97.2,,,,,,,
12010.73,-0.00082,-93.16,,,,,,,
12010.75,-0.0008,-89.26,,,,,,,
12010.78,-0.00077,-85.33,,,,,,,
12010.81,-0.00075,-81.45,,,,,,,
12010.83,-0.00072,-77.64,,,,,,,
12010.86,-0.0007,-73.21,,,,,,,
12010.88,-0.00067,-69.61,,,,,,,
12010.91,-0.00065,-65.79,,,,,,,
12010.94,-0.00062,-61.56,,,,,,,
12010.97,-0.00059,-57.04,,,,,,,
12011.0,-0.00057,-53.11,,,,,,,
12011.03,-0.00054,-49.03,,,,,,,
12011.05,-0.00052,-45.47,,,,,,,
12011.08,-0.00049,-41.58,,,,,,,
12011.11,-0.00047,-37.57,,,,,,,
12011.14,-0.00044,-33.65,,,,,,,
12011.16,-0.00042,-29.94,,,,,,,
12011.19,-0.00039,-25.94,,,,,,,
12011.22,-0.00036,-21.86,,,,,,,
12011.24,-0.00034,-18.36,,,,,,,
12011.27,-0.00031,-14.9,,,,,,,
12011.3,-0.00029,-11.15,,,,,,,
12011.32,-0.00026,-7.51,,,,,,,
12011.35,-0.00024,-3.62,,,,,,,
12011.38,-0.00021,0.33,,,,,,,
12011.41,-0.00019,4.43,,,,,,,
12011.44,-0.00016,9.03,,,,,,,
30031.91,-0.00012,21.07,,,,,,,
30031.94,-9e-05,24.57,,,,,,,
30031.96,-6e-05,28.0,,,,,,,
30031.99,-4e-05,31.28,,,,,,,
30032.03,-1e-05,32.09,,,,,,,
30032.14,1e-05,40.81,,,,,,,
30032.15,4e-05,46.06,,,,,,,
30032.17,6e-05,50.04,,,,,,,
30032.18,9e-05,53.67,,,,,,,
30032.19,0.00011,56.9,,,,,,,
30032.2,0.00014,59.91,,,,,,,
30032.22,0.00017,62.94,,,,,,,
30032.24,0.00019,65.78,,,,,,,
30032.26,0.00022,68.68,,,,,,,
30032.29,0.00024,71.68,,,,,,,
30032.32,0.00027,75.04,,,,,,,
30032.36,0.0003,78.43,,,,,,,
30032.39,0.00032,82.19,,,,,,,
30032.43,0.00035,85.84,,,,,,,
30032.46,0.00037,89.33,,,,,,,
30032.49,0.0004,92.79,,,,,,,
30032.52,0.00042,96.3,,,,,,,
30032.54,0.00045,99.58,,,,,,,
30032.58,0.00047,103.22,,,,,,,
30032.61,0.0005,106.57,,,,,,,
30032.63,0.00052,109.84,,,,,,,
30032.66,0.00055,113.3,,,,,,,
30032.69,0.00058,116.8,,,,,,,
30032.72,0.0006,120.02,,,,,,,
30032.75,0.00063,123.42,,,,,,,
30032.78,0.00065,126.75,,,,,,,
30032.81,0.00068,130.02,,,,,,,
30032.84,0.0007,133.41,,,,,,,
30032.86,0.00073,136.7,,,,,,,
30032.89,0.00075,139.8,,,,,,,
30032.92,0.00078,143.12,,,,,,,
30032.95,0.0008,146.64,,,,,,,
30032.97,0.00083,150.4,,,,,,,
30032.99,0.00086,153.9,,,,,,,
30033.01,0.00088,157.33,,,,,,,
30033.03,0.00091,160.61,,,,,,,
30033.05,0.00093,163.99,,,,,,,
30033.07,0.00096,167.35,,,,,,,
30033.09,0.00098,170.55,,,,,,,
30033.11,0.00101,173.66,,,,,,,
30033.13,0.00103,176.97,,,,,,,
30033.15,0.00106,180.09,,,,,,,
30033.17,0.00109,182.95,,,,,,,
30033.19,0.00111,185.84,,,,,,,
30033.21,0.00114,186.41,,,,,,,
30033.22,0.00116,187.57,,,,,,,
30033.22,0.00119,188.24,,,,,,,
30033.23,0.00122,188.75,,,,,,,
30033.23,0.00125,189.21,,,,,,,
30033.24,0.00127,189.75,,,,,,,
30033.24,0.0013,190.24,,,,,,,
30033.25,0.00133,190.5,,,,,,,
30033.4,0.00135,188.91,,,,,,,
30033.44,0.00138,191.86,,,,,,,
30033.47,0.0014,192.59,,,,,,,
30033.56,0.00138,182.2,,,,,,,
30033.59,0.00135,177.66,,,,,,,
30033.61,0.00133,173.32,,,,,,,
30033.64,0.0013,169.21,,,,,,,
30033.66,0.00128,165.24,,,,,,,
30033.69,0.00125,161.14,,,,,,,
30033.71,0.00123,157.27,,,,,,,
30033.74,0.0012,153.51,,,,,,,
30033.76,0.00118,149.84,,,,,,,
30033.79,0.00115,146.15,,,,,,,
30033.82,0.00112,142.35,,,,,,,
30033.85,0.0011,138.57,,,,,,,
30033.87,0.00107,134.53,,,,,,,
30033.9,0.00105,130.38,,,,,,,
30033.94,0.00102,126.21,,,,,,,
30033.97,0.001,121.86,,,,,,,
30033.99,0.00097,117.72,,,,,,,
30034.02,0.00095,113.6,,,,,,,
30034.05,0.00092,109.44,,,,,,,
30034.07,0.0009,105.8,,,,,,,
30034.1,0.00087,102.06,,,,,,,
30034.12,0.00085,98.37,,,,,,,
30034.15,0.00082,94.95,,,,,,,
30034.18,0.00079,91.0,,,,,,,
30034.21,0.00077,87.23,,,,,,,
30034.24,0.00074,83.35,,,,,,,
30034.26,0.00072,79.51,,,,,,,
30034.29,0.00069,75.7,,,,,,,
30034.32,0.00067,71.82,,,,,,,
30034.35,0.00064,67.96,,,,,,,
30034.37,0.00062,64.09,,,,,,,
30034.4,0.00059,60.38,,,,,,,
30034.43,0.00057,56.59,,,,,,,
30034.45,0.00054,52.84,,,,,,,
30034.48,0.00051,49.23,,,,,,,
30034.51,0.00049,45.52,,,,,,,
30034.54,0.00046,41.75,,,,,,,
30034.56,0.00044,38.02,,,,,,,
30034.59,0.00041,34.45,,,,,,,
30034.62,0.00039,30.86,,,,,,,
30034.65,0.00036,27.16,,,,,,,
30034.67,0.00034,23.7,,,,,,,
30034.7,0.00031,20.18,,,,,,,
30034.73,0.00029,16.48,,,,,,,
30034.75,0.00026,13.19,,,,,,,
30034.78,0.00023,9.45,,,,,,,
30034.81,0.00021,5.65,,,,,,,
30034.84,0.00018,2.0,,,,,,,
30034.87,0.00016,-1.61,,,,,,,
30034.9,0.00013,-5.48,,,,,,,
30034.93,0.00011,-9.12,,,,,,,
30034.95,8e-05,-12.7,,,,,,,
30034.99,6e-05,-14.54,,,,,,,
30035.1,3e-05,-21.43,,,,,,,
30035.12,0.0,-27.41,,,,,,,
30035.14,-2e-05,-31.81,,,,,,,
30035.15,-5e-05,-35.53,,,,,,,
30035.16,-7e-05,-38.76,,,,,,,
30035.18,-0.0001,-41.79,,,,,,,
30035.19,-0.00012,-44.87,,,,,,,
30035.21,-0.00015,-47.8,,,,,,,
30035.23,-0.00017,-50.81,,,,,,,
30035.26,-0.0002,-53.89,,,,,,,
30035.29,-0.00023,-57.55,,,,,,,
30035.33,-0.00025,-61.21,,,,,,,
30035.36,-0.00028,-64.7,,,,,,,
30035.4,-0.0003,-68.58,,,,,,,
30035.43,-0.00033,-72.67,,,,,,,
30035.46,-0.00035,-76.49,,,,,,,
30035.49,-0.00038,-79.97,,,,,,,
30035.52,-0.0004,-83.66,,,,,,,
30035.55,-0.00043,-87.3,,,,,,,
30035.58,-0.00045,-90.79,,,,,,,
30035.6,-0.00048,-94.17,,,,,,,
30035.63,-0.00051,-97.64,,,,,,,
30035.66,-0.00053,-100.9,,,,,,,
30035.69,-0.00056,-104.2,,,,,,,
30035.72,-0.00058,-107.7,,,,,,,
30035.75,-0.00061,-110.9,,,,,,,
30035.78,-0.00063,-114.5,,,,,,,
30035.81,-0.00066,-118.4,,,,,,,
30035.83,-0.00068,-122.4,,,,,,,
30035.86,-0.00071,-126.3,,,,,,,
30035.88,-0.00073,-130.2,,,,,,,
30035.9,-0.00076,-133.9,,,,,,,
30035.92,-0.00078,-137.4,,,,,,,
30035.94,-0.00081,-141.3,,,,,,,
30035.95,-0.00084,-144.8,,,,,,,
30035.97,-0.00086,-148.5,,,,,,,
30035.99,-0.00089,-151.9,,,,,,,
30036.01,-0.00091,-155.4,,,,,,,
30036.03,-0.00094,-158.7,,,,,,,
30036.05,-0.00097,-162.2,,,,,,,
30036.07,-0.00099,-165.3,,,,,,,
30036.09,-0.00102,-168.5,,,,,,,
30036.11,-0.00104,-171.8,,,,,,,
30036.13,-0.00107,-174.9,,,,,,,
30036.16,-0.00109,-178.2,,,,,,,
30036.18,-0.00112,-181.0,,,,,,,
30036.2,-0.00114,-183.8,,,,,,,
30036.22,-0.00117,-186.4,,,,,,,
30036.24,-0.0012,-187.0,,,,,,,
30036.24,-0.00122,-187.8,,,,,,,
30036.25,-0.00125,-188.5,,,,,,,
30036.26,-0.00128,-189.1,,,,,,,
30036.26,-0.00131,-189.8,,,,,,,
30036.27,-0.00133,-190.4,,,,,,,
30036.3,-0.00136,-190.3,,,,,,,
30036.42,-0.00138,-191.5,,,,,,,
30036.45,-0.00141,-192.7,,,,,,,
30036.57,-0.00138,-180.3,,,,,,,
30036.59,-0.00136,-175.6,,,,,,,
30036.61,-0.00133,-171.1,,,,,,,
30036.64,-0.00131,-166.7,,,,,,,
30036.67,-0.00128,-162.5,,,,,,,
30036.69,-0.00126,-157.9,,,,,,,
30036.72,-0.00123,-153.2,,,,,,,
30036.75,-0.0012,-148.3,,,,,,,
30036.78,-0.00118,-143.7,,,,,,,
30036.81,-0.00115,-139.5,,,,,,,
30036.83,-0.00113,-135.4,,,,,,,
30036.86,-0.0011,-131.2,,,,,,,
30036.88,-0.00108,-127.0,,,,,,,
30036.91,-0.00105,-122.8,,,,,,,
30036.94,-0.00103,-118.4,,,,,,,
30036.97,-0.001,-113.4,,,,,,,
30037.0,-0.00098,-109.2,,,,,,,
30037.02,-0.00095,-105.1,,,,,,,
30037.05,-0.00092,-101.0,,,,,,,
30037.07,-0.0009,-96.85,,,,,,,
30037.1,-0.00087,-92.8,,,,,,,
30037.13,-0.00085,-89.05,,,,,,,
30037.15,-0.00082,-85.24,,,,,,,
30037.18,-0.0008,-81.45,,,,,,,
30037.21,-0.00077,-77.3,,,,,,,
30037.24,-0.00075,-73.18,,,,,,,
30037.27,-0.00072,-69.43,,,,,,,
30037.29,-0.0007,-65.71,,,,,,,
30037.32,-0.00067,-61.91,,,,,,,
30037.35,-0.00064,-58.23,,,,,,,
30037.37,-0.00062,-54.54,,,,,,,
30037.4,-0.00059,-50.72,,,,,,,
30037.43,-0.00057,-46.77,,,,,,,
30037.46,-0.00054,-42.66,,,,,,,
30037.49,-0.00052,-38.69,,,,,,,
30037.51,-0.00049,-34.79,,,,,,,
30037.54,-0.00047,-30.46,,,,,,,
30037.57,-0.00044,-26.65,,,,,,,
30037.6,-0.00042,-23.07,,,,,,,
30037.62,-0.00039,-19.26,,,,,,,
30037.65,-0.00037,-15.48,,,,,,,
30037.67,-0.00034,-12.09,,,,,,,
30037.7,-0.00031,-8.53,,,,,,,
30037.73,-0.00029,-4.62,,,,,,,
30037.75,-0.00026,-0.86,,,,,,,
30037.78,-0.00024,2.69,,,,,,,
30037.8,-0.00021,6.01,,,,,,,
30037.83,-0.00019,9.71,,,,,,,
30037.86,-0.00016,13.54,,,,,,,
30037.9,-0.00014,17.81,,,,,,,
31233.66,-0.00012,12.74,,,,,,,
31233.69,-0.0001,16.23,,,,,,,
31233.71,-7e-05,19.96,,,,,,,
31233.74,-5e-05,23.6,,,,,,,
31233.77,-2e-05,27.06,,,,,,,
31233.8,0.0,30.59,,,,,,,
31233.84,3e-05,32.72,,,,,,,
31233.95,6e-05,40.97,,,,,,,
31233.97,8e-05,46.37,,,,,,,
31233.98,0.00011,50.47,,,,,,,
31233.99,0.00013,53.95,,,,,,,
31234.0,0.00016,57.01,,,,,,,
31234.02,0.00019,60.03,,,,,,,
31234.03,0.00021,62.82,,,,,,,
31234.04,0.00024,65.55,,,,,,,
31234.07,0.00026,68.23,,,,,,,
31234.09,0.00029,71.11,,,,,,,
31234.12,0.00031,74.31,,,,,,,
31234.16,0.00034,77.33,,,,,,,
31234.19,0.00036,80.56,,,,,,,
31234.22,0.00039,83.84,,,,,,,
31234.26,0.00041,87.46,,,,,,,
31234.29,0.00044,90.82,,,,,,,
31234.32,0.00047,94.31,,,,,,,
31234.35,0.00049,97.71,,,,,,,
31234.38,0.00052,101.3,,,,,,,
31234.41,0.00054,104.84,,,,,,,
31234.44,0.00057,108.68,,,,,,,
31234.47,0.00059,112.58,,,,,,,
31234.5,0.00062,116.22,,,,,,,
31234.53,0.00064,119.88,,,,,,,
31234.56,0.00067,123.56,,,,,,,
31234.59,0.00069,127.05,,,,,,,
31234.62,0.00072,130.55,,,,,,,
31234.65,0.00074,133.99,,,,,,,
31234.67,0.00077,137.41,,,,,,,
31234.7,0.0008,140.81,,,,,,,
31234.73,0.00082,144.12,,,,,,,
31234.76,0.00085,147.61,,,,,,,
31234.78,0.00087,151.45,,,,,,,
31234.8,0.0009,155.21,,,,,,,
31234.82,0.00092,158.71,,,,,,,
31234.84,0.00095,162.26,,,,,,,
31234.86,0.00098,165.88,,,,,,,
31234.88,0.001,169.27,,,,,,,
31234.9,0.00103,172.57,,,,,,,
31234.92,0.00105,176.16,,,,,,,
31234.94,0.00108,179.33,,,,,,,
31234.96,0.0011,182.53,,,,,,,
31234.98,0.00113,185.59,,,,,,,
31235.0,0.00115,188.21,,,,,,,
31235.01,0.00118,189.15,,,,,,,
31235.02,0.00121,190.11,,,,,,,
31235.03,0.00124,190.76,,,,,,,
31235.03,0.00126,191.35,,,,,,,
31235.04,0.00129,191.87,,,,,,,
31235.04,0.00132,192.35,,,,,,,
31235.05,0.00134,192.75,,,,,,,
31235.06,0.00137,192.87,,,,,,,
31235.24,0.0014,191.71,,,,,,,
31235.32,0.00137,183.51,,,,,,,
31235.35,0.00134,178.97,,,,,,,
31235.38,0.00132,174.91,,,,,,,
31235.4,0.00129,171.07,,,,,,,
31235.43,0.00127,167.28,,,,,,,
31235.45,0.00124,163.3,,,,,,,
31235.48,0.00122,159.57,,,,,,,
31235.51,0.00119,155.54,,,,,,,
31235.54,0.00117,151.35,,,,,,,
31235.57,0.00114,147.32,,,,,,,
31235.6,0.00112,142.83,,,,,,,
31235.63,0.00109,138.48,,,,,,,
31235.66,0.00107,134.13,,,,,,,
31235.69,0.00104,129.99,,,,,,,
31235.71,0.00102,125.81,,,,,,,
31235.74,0.00099,121.51,,,,,,,
31235.77,0.00096,117.52,,,,,,,
31235.79,0.00094,113.65,,,,,,,
31235.82,0.00091,109.61,,,,,,,
31235.85,0.00089,105.5,,,,,,,
31235.88,0.00086,101.07,,,,,,,
31235.91,0.00084,96.96,,,,,,,
31235.93,0.00081,93.27,,,,,,,
31235.96,0.00079,89.27,,,,,,,
31235.99,0.00076,85.26,,,,,,,
31236.01,0.00074,81.46,,,,,,,
31236.04,0.00071,77.38,,,,,,,
31236.07,0.00068,73.17,,,,,,,
31236.1,0.00066,69.04,,,,,,,
31236.13,0.00063,64.72,,,,,,,
31236.16,0.00061,60.66,,,,,,,
31236.18,0.00058,56.46,,,,,,,
31236.21,0.00056,52.51,,,,,,,
31236.23,0.00053,48.67,,,,,,,
31236.26,0.00051,44.88,,,,,,,
31236.29,0.00048,40.91,,,,,,,
31236.31,0.00046,36.98,,,,,,,
31236.34,0.00043,33.08,,,,,,,
31236.37,0.00041,28.69,,,,,,,
31236.4,0.00038,24.44,,,,,,,
31236.43,0.00035,20.43,,,,,,,
31236.45,0.00033,16.48,,,,,,,
31236.48,0.0003,12.76,,,,,,,
31236.51,0.00028,8.99,,,,,,,
31236.54,0.00025,5.06,,,,,,,
31236.56,0.00023,1.16,,,,,,,
31236.6,0.0002,-2.83,,,,,,,
31236.62,0.00018,-6.46,,,,,,,
31236.65,0.00015,-10.08,,,,,,,
31236.68,0.00012,-13.74,,,,,,,
31236.72,0.0001,-14.82,,,,,,,
31236.82,7e-05,-22.86,,,,,,,
31236.84,5e-05,-28.57,,,,,,,
31236.86,2e-05,-32.71,,,,,,,
31236.87,-1e-05,-36.32,,,,,,,
31236.88,-3e-05,-39.51,,,,,,,
31236.89,-6e-05,-42.42,,,,,,,
31236.91,-8e-05,-45.55,,,,,,,
31236.93,-0.00011,-48.4,,,,,,,
31236.95,-0.00014,-51.31,,,,,,,
31236.99,-0.00016,-54.69,,,,,,,
31237.02,-0.00019,-58.39,,,,,,,
31237.05,-0.00021,-61.93,,,,,,,
31237.09,-0.00024,-65.77,,,,,,,
31237.12,-0.00026,-69.48,,,,,,,
31237.15,-0.00029,-73.07,,,,,,,
31237.18,-0.00031,-76.61,,,,,,,
31237.21,-0.00034,-80.19,,,,,,,
31237.24,-0.00036,-83.8,,,,,,,
31237.27,-0.00039,-87.3,,,,,,,
31237.3,-0.00042,-90.75,,,,,,,
31237.33,-0.00044,-94.25,,,,,,,
31237.36,-0.00047,-97.83,,,,,,,
31237.39,-0.00049,-101.3,,,,,,,
31237.42,-0.00052,-104.7,,,,,,,
31237.45,-0.00054,-108.2,,,,,,,
31237.48,-0.00057,-111.7,,,,,,,
31237.51,-0.00059,-115.3,,,,,,,
31237.53,-0.00062,-118.7,,,,,,,
31237.56,-0.00064,-122.6,,,,,,,
31237.58,-0.00067,-126.5,,,,,,,
31237.6,-0.0007,-130.3,,,,,,,
31237.62,-0.00072,-133.9,,,,,,,
31237.64,-0.00075,-137.4,,,,,,,
31237.65,-0.00077,-140.9,,,,,,,
31237.67,-0.0008,-144.3,,,,,,,
31237.69,-0.00082,-147.6,,,,,,,
31237.71,-0.00085,-150.8,,,,,,,
31237.73,-0.00088,-154.1,,,,,,,
31237.75,-0.0009,-157.4,,,,,,,
31237.77,-0.00093,-160.6,,,,,,,
31237.79,-0.00095,-163.8,,,,,,,
31237.81,-0.00098,-166.9,,,,,,,
31237.83,-0.001,-169.6,,,,,,,
31237.85,-0.00103,-172.2,,,,,,,
31237.87,-0.00105,-175.1,,,,,,,
31237.9,-0.00108,-177.8,,,,,,,
31237.92,-0.00111,-180.6,,,,,,,
31237.94,-0.00113,-183.3,,,,,,,
31237.96,-0.00116,-185.4,,,,,,,
31237.98,-0.00118,-186.8,,,,,,,
31237.99,-0.00121,-187.0,,,,,,,
31238.0,-0.00123,-187.6,,,,,,,
31238.01,-0.00126,-188.1,,,,,,,
31238.01,-0.00129,-188.5,,,,,,,
31238.02,-0.00131,-188.8,,,,,,,
31238.03,-0.00134,-189.0,,,,,,,
31238.16,-0.00136,-187.4,,,,,,,
31238.19,-0.00139,-190.3,,,,,,,
31238.22,-0.00141,-191.5,,,,,,,
31238.32,-0.00139,-179.9,,,,,,,
31238.35,-0.00136,-175.3,,,,,,,
31238.37,-0.00134,-170.4,,,,,,,
31238.4,-0.00131,-165.7,,,,,,,
31238.42,-0.00129,-161.6,,,,,,,
31238.45,-0.00126,-157.5,,,,,,,
31238.47,-0.00123,-153.3,,,,,,,
31238.5,-0.00121,-148.9,,,,,,,
31238.53,-0.00118,-144.3,,,,,,,
31238.56,-0.00116,-139.8,,,,,,,
31238.59,-0.00113,-135.5,,,,,,,
31238.61,-0.00111,-131.7,,,,,,,
31238.64,-0.00108,-127.7,,,,,,,
31238.67,-0.00106,-123.7,,,,,,,
31238.69,-0.00103,-119.8,,,,,,,
31238.72,-0.00101,-115.7,,,,,,,
31238.75,-0.00098,-111.9,,,,,,,
31238.77,-0.00095,-108.4,,,,,,,
31238.79,-0.00093,-105.0,,,,,,,
31238.82,-0.0009,-101.7,,,,,,,
31238.85,-0.00088,-98.6,,,,,,,
31238.87,-0.00085,-95.27,,,,,,,
31238.9,-0.00083,-92.12,,,,,,,
31238.92,-0.0008,-89.09,,,,,,,
31238.95,-0.00077,-85.89,,,,,,,
31238.98,-0.00075,-82.7,,,,,,,
31239.01,-0.00072,-79.48,,,,,,,
31239.03,-0.0007,-76.2,,,,,,,
31239.06,-0.00067,-72.5,,,,,,,
31239.09,-0.00065,-69.19,,,,,,,
31239.12,-0.00062,-65.71,,,,,,,
31239.15,-0.0006,-62.05,,,,,,,
31239.18,-0.00057,-58.45,,,,,,,
31239.2,-0.00054,-55.01,,,,,,,
31239.23,-0.00052,-51.21,,,,,,,
31239.26,-0.00049,-47.79,,,,,,,
31239.29,-0.00047,-44.28,,,,,,,
31239.31,-0.00044,-40.55,,,,,,,
31239.34,-0.00042,-37.0,,,,,,,
31239.37,-0.00039,-33.37,,,,,,,
31239.4,-0.00036,-29.82,,,,,,,
31239.42,-0.00034,-26.29,,,,,,,
31239.45,-0.00031,-22.78,,,,,,,
31239.48,-0.00029,-19.2,,,,,,,
31239.5,-0.00026,-15.84,,,,,,,
31239.53,-0.00024,-12.16,,,,,,,
31239.56,-0.00021,-8.53,,,,,,,
31239.59,-0.00019,-4.8,,,,,,,
31239.61,-0.00016,-0.79,,,,,,,
31239.64,-0.00014,2.93,,,,,,,
50449.84,-0.00011,23.61,,,,,,,
50449.86,-9e-05,27.06,,,,,,,
50449.89,-6e-05,30.37,,,,,,,
50449.92,-3e-05,32.79,,,,,,,
50450.04,-1e-05,36.23,,,,,,,
50450.06,2e-05,41.65,,,,,,,
50450.08,4e-05,46.68,,,,,,,
50450.09,7e-05,50.79,,,,,,,
50450.1,9e-05,54.26,,,,,,,
50450.11,0.00012,57.38,,,,,,,
50450.13,0.00015,60.33,,,,,,,
50450.14,0.00017,63.04,,,,,,,
50450.16,0.0002,65.69,,,,,,,
50450.19,0.00022,68.37,,,,,,,
50450.22,0.00025,71.28,,,,,,,
50450.25,0.00027,74.29,,,,,,,
50450.28,0.0003,77.44,,,,,,,
50450.31,0.00032,80.79,,,,,,,
50450.35,0.00035,84.33,,,,,,,
50450.38,0.00038,87.93,,,,,,,
50450.42,0.0004,91.79,,,,,,,
50450.45,0.00043,95.18,,,,,,,
50450.47,0.00045,98.5,,,,,,,
50450.5,0.00048,101.87,,,,,,,
50450.53,0.0005,105.16,,,,,,,
50450.56,0.00053,108.42,,,,,,,
50450.59,0.00055,111.76,,,,,,,
50450.62,0.00058,115.53,,,,,,,
50450.65,0.0006,118.97,,,,,,,
50450.69,0.00063,122.6,,,,,,,
50450.71,0.00065,126.27,,,,,,,
50450.74,0.00068,129.95,,,,,,,
50450.77,0.00071,133.53,,,,,,,
50450.8,0.00073,136.79,,,,,,,
50450.82,0.00076,140.0,,,,,,,
50450.85,0.00078,143.22,,,,,,,
50450.88,0.00081,146.95,,,,,,,
50450.9,0.00083,150.82,,,,,,,
50450.92,0.00086,154.52,,,,,,,
50450.95,0.00089,157.82,,,,,,,
50450.96,0.00091,160.94,,,,,,,
50450.98,0.00094,164.16,,,,,,,
50451.0,0.00096,167.2,,,,,,,
50451.02,0.00099,170.32,,,,,,,
50451.04,0.00101,173.66,,,,,,,
50451.06,0.00104,177.21,,,,,,,
50451.09,0.00106,180.51,,,,,,,
50451.11,0.00109,183.5,,,,,,,
50451.13,0.00112,185.71,,,,,,,
50451.15,0.00114,187.04,,,,,,,
50451.15,0.00117,188.17,,,,,,,
50451.16,0.00119,189.17,,,,,,,
50451.17,0.00122,190.17,,,,,,,
50451.18,0.00125,191.2,,,,,,,
50451.19,0.00127,192.08,,,,,,,
50451.21,0.0013,192.8,,,,,,,
50451.24,0.00132,193.18,,,,,,,
50451.28,0.00135,193.72,,,,,,,
50451.33,0.00137,195.68,,,,,,,
50451.36,0.0014,197.44,,,,,,,
50451.4,0.00143,196.98,,,,,,,
50451.47,0.0014,185.96,,,,,,,
50451.5,0.00137,181.45,,,,,,,
50451.52,0.00135,177.25,,,,,,,
50451.54,0.00132,172.94,,,,,,,
50451.57,0.0013,168.51,,,,,,,
50451.6,0.00127,163.9,,,,,,,
50451.63,0.00125,159.5,,,,,,,
50451.65,0.00122,155.23,,,,,,,
50451.68,0.0012,151.17,,,,,,,
50451.7,0.00117,147.07,,,,,,,
50451.73,0.00115,143.07,,,,,,,
50451.76,0.00112,139.42,,,,,,,
50451.79,0.0011,135.1,,,,,,,
50451.82,0.00107,130.4,,,,,,,
50451.85,0.00104,126.36,,,,,,,
50451.88,0.00102,122.15,,,,,,,
50451.9,0.00099,117.73,,,,,,,
50451.93,0.00097,113.75,,,,,,,
50451.95,0.00094,109.9,,,,,,,
50451.98,0.00092,106.02,,,,,,,
50452.0,0.00089,102.21,,,,,,,
50452.03,0.00087,98.21,,,,,,,
50452.06,0.00084,94.26,,,,,,,
50452.09,0.00081,90.39,,,,,,,
50452.11,0.00079,86.2,,,,,,,
50452.15,0.00076,82.08,,,,,,,
50452.17,0.00074,78.1,,,,,,,
50452.2,0.00071,74.02,,,,,,,
50452.23,0.00069,70.14,,,,,,,
50452.25,0.00066,66.47,,,,,,,
50452.28,0.00064,62.93,,,,,,,
50452.31,0.00061,59.24,,,,,,,
50452.33,0.00058,55.7,,,,,,,
50452.36,0.00056,52.01,,,,,,,
50452.39,0.00053,47.84,,,,,,,
50452.42,0.00051,44.07,,,,,,,
50452.45,0.00048,40.08,,,,,,,
50452.47,0.00046,36.1,,,,,,,
50452.51,0.00043,32.02,,,,,,,
50452.53,0.00041,27.69,,,,,,,
50452.56,0.00038,23.36,,,,,,,
50452.59,0.00036,19.58,,,,,,,
50452.61,0.00033,16.18,,,,,,,
50452.63,0.0003,12.87,,,,,,,
50452.66,0.00028,9.45,,,,,,,
50452.69,0.00025,5.72,,,,,,,
50452.72,0.00023,1.7,,,,,,,
50452.76,0.0002,-2.3,,,,,,,
50452.78,0.00018,-6.46,,,,,,,
50452.81,0.00015,-10.21,,,,,,,
50452.84,0.00013,-13.81,,,,,,,
50452.88,0.0001,-15.18,,,,,,,
50452.98,8e-05,-22.07,,,,,,,
50453.0,5e-05,-27.53,,,,,,,
50453.01,2e-05,-31.64,,,,,,,
50453.03,-0.0,-35.38,,,,,,,
50453.04,-3e-05,-38.62,,,,,,,
50453.05,-5e-05,-41.36,,,,,,,
50453.07,-8e-05,-44.21,,,,,,,
50453.08,-0.00011,-46.89,,,,,,,
50453.11,-0.00013,-49.61,,,,,,,
50453.13,-0.00016,-52.67,,,,,,,
50453.17,-0.00018,-56.27,,,,,,,
50453.21,-0.00021,-59.95,,,,,,,
50453.24,-0.00023,-63.76,,,,,,,
50453.28,-0.00026,-67.43,,,,,,,
50453.3,-0.00028,-70.76,,,,,,,
50453.33,-0.00031,-74.16,,,,,,,
50453.36,-0.00033,-77.47,,,,,,,
50453.39,-0.00036,-80.83,,,,,,,
50453.42,-0.00039,-84.25,,,,,,,
50453.45,-0.00041,-87.72,,,,,,,
50453.49,-0.00044,-91.15,,,,,,,
50453.52,-0.00046,-94.74,,,,,,,
50453.55,-0.00049,-98.35,,,,,,,
50453.58,-0.00051,-101.7,,,,,,,
50453.6,-0.00054,-105.3,,,,,,,
50453.63,-0.00056,-108.9,,,,,,,
50453.66,-0.00059,-112.5,,,,,,,
50453.69,-0.00061,-116.2,,,,,,,
50453.72,-0.00064,-120.2,,,,,,,
50453.74,-0.00066,-124.4,,,,,,,
50453.77,-0.00069,-128.5,,,,,,,
50453.79,-0.00072,-132.6,,,,,,,
50453.81,-0.00074,-136.4,,,,,,,
50453.83,-0.00077,-140.4,,,,,,,
50453.85,-0.00079,-144.2,,,,,,,
50453.86,-0.00082,-147.8,,,,,,,
50453.88,-0.00085,-151.3,,,,,,,
50453.9,-0.00087,-154.9,,,,,,,
50453.92,-0.0009,-158.5,,,,,,,
50453.94,-0.00092,-161.9,,,,,,,
50453.96,-0.00095,-165.6,,,,,,,
50453.99,-0.00097,-169.1,,,,,,,
50454.01,-0.001,-172.2,,,,,,,
50454.03,-0.00102,-175.4,,,,,,,
50454.04,-0.00105,-178.2,,,,,,,
50454.07,-0.00108,-181.3,,,,,,,
50454.09,-0.0011,-184.4,,,,,,,
50454.11,-0.00113,-186.7,,,,,,,
50454.13,-0.00115,-188.1,,,,,,,
50454.14,-0.00118,-188.7,,,,,,,
50454.15,-0.00121,-189.5,,,,,,,
50454.15,-0.00123,-190.3,,,,,,,
50454.16,-0.00126,-190.9,,,,,,,
50454.17,-0.00128,-191.6,,,,,,,
50454.19,-0.00131,-192.1,,,,,,,
50454.28,-0.00133,-192.2,,,,,,,
50454.33,-0.00136,-195.8,,,,,,,
50454.36,-0.00139,-198.6,,,,,,,
50454.4,-0.00141,-199.2,,,,,,,
50454.48,-0.00139,-189.0,,,,,,,
50454.51,-0.00136,-184.6,,,,,,,
50454.53,-0.00133,-180.4,,,,,,,
50454.55,-0.00131,-176.2,,,,,,,
50454.58,-0.00128,-172.2,,,,,,,
50454.6,-0.00126,-168.0,,,,,,,
50454.63,-0.00123,-164.0,,,,,,,
50454.65,-0.00121,-160.5,,,,,,,
50454.68,-0.00118,-156.7,,,,,,,
50454.71,-0.00116,-152.7,,,,,,,
50454.74,-0.00113,-148.7,,,,,,,
50454.77,-0.0011,-144.6,,,,,,,
50454.79,-0.00108,-140.4,,,,,,,
50454.82,-0.00105,-136.4,,,,,,,
50454.85,-0.00103,-132.4,,,,,,,
50454.88,-0.001,-128.4,,,,,,,
50454.91,-0.00098,-124.6,,,,,,,
50454.93,-0.00095,-120.6,,,,,,,
50454.96,-0.00093,-116.7,,,,,,,
50454.99,-0.0009,-112.7,,,,,,,
50455.01,-0.00088,-109.2,,,,,,,
50455.04,-0.00085,-105.6,,,,,,,
50455.06,-0.00082,-101.9,,,,,,,
50455.1,-0.0008,-98.12,,,,,,,
50455.12,-0.00077,-94.06,,,,,,,
50455.15,-0.00075,-90.09,,,,,,,
50455.18,-0.00072,-86.29,,,,,,,
50455.21,-0.0007,-82.24,,,,,,,
50455.24,-0.00067,-78.15,,,,,,,
50455.26,-0.00065,-74.23,,,,,,,
50455.29,-0.00062,-70.44,,,,,,,
50455.32,-0.00059,-66.5,,,,,,,
50455.35,-0.00057,-62.75,,,,,,,
50455.37,-0.00054,-58.95,,,,,,,
50455.4,-0.00052,-54.84,,,,,,,
50455.43,-0.00049,-50.87,,,,,,,
50455.45,-0.00047,-46.9,,,,,,,
50455.48,-0.00044,-42.92,,,,,,,
50455.51,-0.00042,-39.15,,,,,,,
50455.54,-0.00039,-35.21,,,,,,,
50455.56,-0.00037,-31.33,,,,,,,
50455.59,-0.00034,-27.47,,,,,,,
50455.62,-0.00032,-23.77,,,,,,,
50455.65,-0.00029,-19.89,,,,,,,
50455.67,-0.00026,-16.33,,,,,,,
50455.7,-0.00024,-12.44,,,,,,,
50455.73,-0.00021,-8.69,,,,,,,
50455.75,-0.00019,-4.91,,,,,,,
50455.78,-0.00016,-1.26,,,,,,,
50455.8,-0.00014,2.02,,,,,,,
