time,strain,stress,temperature,type,strain_rate,max_strain,title,youngs,poissons
0.0,3e-05,0.09,850,fatigue,0.001,0.00187,43-22,153000,0.3
0.02,5e-05,4.37,,,,,,,
0.04,8e-05,8.33,,,,,,,
0.06,0.00011,11.76,,,,,,,
0.08,0.00013,14.97,,,,,,,
0.1,0.00016,18.26,,,,,,,
0.13,0.00018,21.52,,,,,,,
0.17,0.00021,24.32,,,,,,,
0.25,0.00023,28.52,,,,,,,
0.29,0.00026,34.41,,,,,,,
0.31,0.00028,40.22,,,,,,,
0.32,0.00031,45.3,,,,,,,
0.34,0.00033,49.76,,,,,,,
0.35,0.00036,53.53,,,,,,,
0.36,0.00039,56.66,,,,,,,
0.38,0.00041,59.51,,,,,,,
0.39,0.00044,61.94,,,,,,,
0.42,0.00046,64.16,,,,,,,
0.48,0.00049,68.07,,,,,,,
0.52,0.00052,73.37,,,,,,,
0.55,0.00054,77.93,,,,,,,
0.57,0.00057,81.92,,,,,,,
0.6,0.00059,85.45,,,,,,,
0.62,0.00062,89.06,,,,,,,
0.65,0.00064,92.71,,,,,,,
0.68,0.00067,96.25,,,,,,,
0.71,0.00069,99.91,,,,,,,
0.74,0.00072,103.95,,,,,,,
0.77,0.00074,107.97,,,,,,,
0.8,0.00077,111.92,,,,,,,
0.83,0.0008,115.87,,,,,,,
0.85,0.00082,119.54,,,,,,,
0.88,0.00085,123.18,,,,,,,
0.91,0.00087,126.8,,,,,,,
0.93,0.0009,130.14,,,,,,,
1.03,0.00087,118.93,,,,,,,
1.05,0.00085,115.34,,,,,,,
1.07,0.00082,111.94,,,,,,,
1.09,0.00079,108.89,,,,,,,
1.11,0.00077,106.06,,,,,,,
1.14,0.00074,103.65,,,,,,,
1.18,0.00072,100.69,,,,,,,
1.23,0.00069,96.4,,,,,,,
1.27,0.00067,92.22,,,,,,,
1.3,0.00064,87.76,,,,,,,
1.32,0.00062,83.79,,,,,,,
1.35,0.00059,79.93,,,,,,,
1.37,0.00057,76.44,,,,,,,
1.4,0.00054,72.83,,,,,,,
1.43,0.00051,69.17,,,,,,,
1.46,0.00049,65.41,,,,,,,
1.49,0.00046,61.54,,,,,,,
1.52,0.00044,57.51,,,,,,,
1.54,0.00041,53.41,,,,,,,
1.57,0.00039,49.25,,,,,,,
1.6,0.00036,45.36,,,,,,,
1.62,0.00034,41.64,,,,,,,
1.65,0.00031,37.83,,,,,,,
1.68,0.00029,34.02,,,,,,,
1.7,0.00026,30.16,,,,,,,
1.73,0.00023,26.11,,,,,,,
1.76,0.00021,22.11,,,,,,,
1.79,0.00018,18.05,,,,,,,
1.81,0.00016,14.27,,,,,,,
1.84,0.00013,10.57,,,,,,,
1.87,0.00011,6.87,,,,,,,
1.9,8e-05,3.03,,,,,,,
1.93,6e-05,-0.88,,,,,,,
1.95,3e-05,-5.05,,,,,,,
1.98,0.0,-8.83,,,,,,,
2.0,-2e-05,-12.22,,,,,,,
2.03,-5e-05,-14.85,,,,,,,
2.15,-7e-05,-18.89,,,,,,,
2.18,-0.0001,-24.02,,,,,,,
2.2,-0.00012,-28.99,,,,,,,
2.22,-0.00015,-36.38,,,,,,,
2.23,-0.00017,-41.69,,,,,,,
2.25,-0.0002,-46.0,,,,,,,
2.25,-0.00023,-49.45,,,,,,,
2.26,-0.00025,-52.52,,,,,,,
2.28,-0.00028,-55.35,,,,,,,
2.29,-0.00031,-57.81,,,,,,,
2.3,-0.00033,-59.95,,,,,,,
2.33,-0.00036,-61.71,,,,,,,
2.42,-0.00038,-68.16,,,,,,,
2.45,-0.00041,-73.22,,,,,,,
2.47,-0.00044,-77.32,,,,,,,
2.49,-0.00046,-80.8,,,,,,,
2.51,-0.00049,-84.01,,,,,,,
2.54,-0.00051,-87.59,,,,,,,
2.57,-0.00054,-91.28,,,,,,,
2.6,-0.00056,-95.2,,,,,,,
2.63,-0.00059,-99.35,,,,,,,
2.66,-0.00061,-103.5,,,,,,,
2.69,-0.00064,-107.7,,,,,,,
2.71,-0.00066,-111.7,,,,,,,
2.74,-0.00069,-115.9,,,,,,,
2.76,-0.00072,-120.3,,,,,,,
2.78,-0.00074,-124.7,,,,,,,
2.8,-0.00077,-128.8,,,,,,,
2.82,-0.00079,-132.6,,,,,,,
2.84,-0.00082,-136.1,,,,,,,
2.86,-0.00084,-139.6,,,,,,,
2.89,-0.00087,-143.6,,,,,,,
2.91,-0.00089,-147.5,,,,,,,
2.93,-0.00092,-151.2,,,,,,,
2.96,-0.00095,-152.9,,,,,,,
3.03,-0.00092,-141.9,,,,,,,
3.05,-0.00089,-137.4,,,,,,,
3.06,-0.00087,-133.7,,,,,,,
3.08,-0.00084,-130.4,,,,,,,
3.09,-0.00082,-127.4,,,,,,,
3.11,-0.00079,-124.5,,,,,,,
3.14,-0.00076,-121.7,,,,,,,
3.17,-0.00074,-118.9,,,,,,,
3.22,-0.00071,-114.2,,,,,,,
3.25,-0.00069,-109.4,,,,,,,
3.28,-0.00066,-105.0,,,,,,,
3.3,-0.00064,-100.7,,,,,,,
3.33,-0.00061,-96.72,,,,,,,
3.35,-0.00059,-92.95,,,,,,,
3.38,-0.00056,-89.15,,,,,,,
3.4,-0.00054,-85.33,,,,,,,
3.43,-0.00051,-81.62,,,,,,,
3.46,-0.00048,-77.58,,,,,,,
3.49,-0.00046,-73.44,,,,,,,
3.51,-0.00043,-69.42,,,,,,,
3.54,-0.00041,-65.31,,,,,,,
3.57,-0.00038,-61.22,,,,,,,
3.59,-0.00036,-57.39,,,,,,,
3.62,-0.00033,-53.45,,,,,,,
3.65,-0.00031,-49.39,,,,,,,
3.67,-0.00028,-45.4,,,,,,,
3.7,-0.00026,-41.37,,,,,,,
3.73,-0.00023,-37.59,,,,,,,
3.75,-0.00021,-33.83,,,,,,,
3.78,-0.00018,-29.73,,,,,,,
3.81,-0.00015,-25.55,,,,,,,
3.84,-0.00013,-21.0,,,,,,,
3.87,-0.0001,-16.6,,,,,,,
3.9,-8e-05,-12.14,,,,,,,
3.92,-5e-05,-8.12,,,,,,,
3.95,-3e-05,-4.26,,,,,,,
3.97,-0.0,-0.51,,,,,,,
4.0,2e-05,3.33,,,,,,,
4.03,5e-05,7.37,,,,,,,
4.06,7e-05,11.76,,,,,,,
4.09,0.0001,15.78,,,,,,,
4.11,0.00013,19.53,,,,,,,
4.14,0.00015,23.38,,,,,,,
4.17,0.00018,27.2,,,,,,,
4.19,0.0002,30.97,,,,,,,
4.23,0.00023,33.11,,,,,,,
4.33,0.00025,43.91,,,,,,,
4.34,0.00028,49.31,,,,,,,
4.35,0.0003,53.75,,,,,,,
4.36,0.00033,57.42,,,,,,,
4.37,0.00036,60.83,,,,,,,
4.38,0.00038,63.66,,,,,,,
4.39,0.00041,66.15,,,,,,,
4.41,0.00044,68.39,,,,,,,
4.42,0.00046,70.21,,,,,,,
4.46,0.00049,71.84,,,,,,,
4.53,0.00051,77.3,,,,,,,
4.56,0.00054,82.07,,,,,,,
4.59,0.00056,86.02,,,,,,,
4.61,0.00059,89.54,,,,,,,
4.63,0.00061,92.96,,,,,,,
4.66,0.00064,96.16,,,,,,,
4.69,0.00066,99.56,,,,,,,
4.72,0.00069,103.44,,,,,,,
4.75,0.00072,107.43,,,,,,,
4.78,0.00074,111.42,,,,,,,
4.81,0.00077,115.34,,,,,,,
4.83,0.00079,119.16,,,,,,,
4.86,0.00082,123.24,,,,,,,
4.89,0.00084,126.99,,,,,,,
4.92,0.00087,130.71,,,,,,,
4.95,0.00089,134.68,,,,,,,
4.97,0.00092,138.53,,,,,,,
5.0,0.00094,142.29,,,,,,,
5.03,0.00097,146.1,,,,,,,
5.05,0.00099,148.87,,,,,,,
5.15,0.00097,138.85,,,,,,,
5.17,0.00094,135.32,,,,,,,
5.19,0.00092,132.07,,,,,,,
5.22,0.00089,129.13,,,,,,,
5.25,0.00087,125.89,,,,,,,
5.29,0.00084,121.79,,,,,,,
5.33,0.00082,117.57,,,,,,,
5.36,0.00079,113.11,,,,,,,
5.39,0.00077,109.14,,,,,,,
5.41,0.00074,105.52,,,,,,,
5.43,0.00072,101.97,,,,,,,
5.46,0.00069,98.28,,,,,,,
5.49,0.00066,94.48,,,,,,,
5.52,0.00064,90.67,,,,,,,
5.54,0.00061,87.03,,,,,,,
5.57,0.00059,83.63,,,,,,,
5.6,0.00056,79.95,,,,,,,
5.63,0.00054,76.2,,,,,,,
5.66,0.00051,72.28,,,,,,,
5.68,0.00048,68.09,,,,,,,
5.71,0.00046,64.19,,,,,,,
5.74,0.00043,60.51,,,,,,,
5.76,0.00041,56.69,,,,,,,
5.79,0.00038,53.03,,,,,,,
5.82,0.00036,48.76,,,,,,,
5.85,0.00033,44.69,,,,,,,
5.87,0.00031,41.04,,,,,,,
5.9,0.00028,37.51,,,,,,,
5.92,0.00025,34.35,,,,,,,
5.94,0.00023,31.2,,,,,,,
5.97,0.0002,27.56,,,,,,,
6.0,0.00018,23.96,,,,,,,
6.03,0.00015,20.53,,,,,,,
6.05,0.00013,17.05,,,,,,,
6.08,0.0001,13.87,,,,,,,
6.11,8e-05,10.26,,,,,,,
6.13,5e-05,6.53,,,,,,,
6.16,3e-05,2.83,,,,,,,
6.19,-0.0,-0.78,,,,,,,
6.21,-3e-05,-4.15,,,,,,,
6.24,-5e-05,-7.31,,,,,,,
6.26,-8e-05,-10.5,,,,,,,
6.29,-0.0001,-13.47,,,,,,,
6.42,-0.00013,-17.55,,,,,,,
6.44,-0.00015,-21.89,,,,,,,
6.47,-0.00018,-26.14,,,,,,,
6.49,-0.0002,-31.39,,,,,,,
6.5,-0.00023,-37.26,,,,,,,
6.51,-0.00026,-42.05,,,,,,,
6.52,-0.00028,-45.78,,,,,,,
6.54,-0.00031,-49.0,,,,,,,
6.55,-0.00034,-51.73,,,,,,,
6.56,-0.00036,-54.08,,,,,,,
6.57,-0.00039,-56.22,,,,,,,
6.6,-0.00041,-58.0,,,,,,,
6.67,-0.00044,-62.02,,,,,,,
6.7,-0.00046,-67.02,,,,,,,
6.73,-0.00049,-71.49,,,,,,,
6.76,-0.00052,-75.78,,,,,,,
6.78,-0.00054,-79.48,,,,,,,
6.81,-0.00057,-82.88,,,,,,,
6.83,-0.00059,-86.57,,,,,,,
6.86,-0.00062,-90.2,,,,,,,
6.89,-0.00064,-93.99,,,,,,,
6.92,-0.00067,-97.74,,,,,,,
6.95,-0.00069,-101.4,,,,,,,
6.97,-0.00072,-105.0,,,,,,,
7.0,-0.00074,-108.7,,,,,,,
7.02,-0.00077,-112.3,,,,,,,
7.05,-0.0008,-116.7,,,,,,,
7.08,-0.00082,-121.3,,,,,,,
7.1,-0.00085,-125.3,,,,,,,
7.12,-0.00087,-129.2,,,,,,,
7.14,-0.0009,-132.8,,,,,,,
7.15,-0.00092,-136.2,,,,,,,
7.17,-0.00095,-139.7,,,,,,,
7.2,-0.00098,-143.1,,,,,,,
7.22,-0.001,-146.5,,,,,,,
7.25,-0.00103,-150.1,,,,,,,
7.35,-0.001,-138.2,,,,,,,
7.37,-0.00098,-134.4,,,,,,,
7.38,-0.00095,-131.0,,,,,,,
7.4,-0.00093,-127.6,,,,,,,
7.42,-0.0009,-124.6,,,,,,,
7.45,-0.00087,-121.6,,,,,,,
7.48,-0.00085,-118.2,,,,,,,
7.52,-0.00082,-113.7,,,,,,,
7.55,-0.0008,-109.6,,,,,,,
7.58,-0.00077,-105.7,,,,,,,
7.6,-0.00075,-102.2,,,,,,,
7.62,-0.00072,-98.45,,,,,,,
7.65,-0.0007,-94.57,,,,,,,
7.68,-0.00067,-91.18,,,,,,,
7.7,-0.00065,-87.82,,,,,,,
7.73,-0.00062,-83.94,,,,,,,
7.76,-0.00059,-80.12,,,,,,,
7.79,-0.00057,-76.42,,,,,,,
7.81,-0.00054,-72.72,,,,,,,
7.84,-0.00052,-68.86,,,,,,,
7.87,-0.00049,-65.12,,,,,,,
7.89,-0.00047,-61.29,,,,,,,
7.92,-0.00044,-57.4,,,,,,,
7.95,-0.00042,-53.17,,,,,,,
7.98,-0.00039,-48.91,,,,,,,
8.01,-0.00037,-44.85,,,,,,,
8.03,-0.00034,-40.99,,,,,,,
8.06,-0.00031,-37.18,,,,,,,
8.08,-0.00029,-33.31,,,,,,,
8.11,-0.00026,-29.43,,,,,,,
8.14,-0.00024,-25.42,,,,,,,
8.17,-0.00021,-20.89,,,,,,,
8.19,-0.00019,-16.75,,,,,,,
8.22,-0.00016,-12.99,,,,,,,
8.24,-0.00014,-9.47,,,,,,,
8.27,-0.00011,-5.85,,,,,,,
8.3,-8e-05,-2.06,,,,,,,
18.46,-6e-05,39.45,,,,,,,
18.47,-3e-05,45.71,,,,,,,
18.49,-0.0,50.5,,,,,,,
18.5,2e-05,54.2,,,,,,,
18.51,5e-05,57.6,,,,,,,
18.52,8e-05,60.6,,,,,,,
18.53,0.0001,63.2,,,,,,,
18.54,0.00013,65.4,,,,,,,
18.55,0.00016,67.15,,,,,,,
18.58,0.00018,68.19,,,,,,,
18.66,0.00021,71.74,,,,,,,
18.7,0.00023,76.53,,,,,,,
18.72,0.00026,80.43,,,,,,,
18.74,0.00028,83.89,,,,,,,
18.76,0.00031,87.14,,,,,,,
18.79,0.00033,90.31,,,,,,,
18.81,0.00036,93.31,,,,,,,
18.84,0.00039,96.4,,,,,,,
18.87,0.00041,99.6,,,,,,,
18.9,0.00044,103.0,,,,,,,
18.94,0.00046,106.5,,,,,,,
18.96,0.00049,110.08,,,,,,,
18.99,0.00051,113.82,,,,,,,
19.02,0.00054,117.19,,,,,,,
19.04,0.00056,120.31,,,,,,,
19.07,0.00059,123.09,,,,,,,
19.09,0.00061,125.46,,,,,,,
19.11,0.00064,127.6,,,,,,,
19.13,0.00067,129.57,,,,,,,
19.16,0.00069,131.59,,,,,,,
19.19,0.00072,133.86,,,,,,,
19.23,0.00074,136.38,,,,,,,
19.25,0.00077,138.9,,,,,,,
19.27,0.0008,141.31,,,,,,,
19.29,0.00082,143.25,,,,,,,
19.3,0.00085,144.77,,,,,,,
19.32,0.00087,146.0,,,,,,,
19.33,0.0009,147.02,,,,,,,
19.34,0.00093,147.78,,,,,,,
19.36,0.00095,148.21,,,,,,,
19.46,0.00098,153.87,,,,,,,
19.48,0.001,157.77,,,,,,,
19.49,0.00103,159.53,,,,,,,
19.5,0.00106,160.8,,,,,,,
19.51,0.00108,161.73,,,,,,,
19.51,0.00111,162.64,,,,,,,
19.52,0.00114,163.35,,,,,,,
19.53,0.00117,163.94,,,,,,,
19.53,0.00119,164.26,,,,,,,
19.54,0.00122,163.85,,,,,,,
19.61,0.00119,153.62,,,,,,,
19.63,0.00117,152.72,,,,,,,
19.69,0.00119,164.41,,,,,,,
19.7,0.00122,168.68,,,,,,,
19.72,0.00125,172.32,,,,,,,
19.73,0.00127,171.49,,,,,,,
19.74,0.0013,172.02,,,,,,,
19.74,0.00133,172.48,,,,,,,
19.74,0.00137,172.86,,,,,,,
19.74,0.00139,173.08,,,,,,,
19.75,0.00142,173.23,,,,,,,
19.75,0.00145,173.36,,,,,,,
19.75,0.00148,173.46,,,,,,,
19.75,0.00151,173.47,,,,,,,
19.75,0.00154,173.46,,,,,,,
19.76,0.00156,173.4,,,,,,,
19.76,0.0016,173.18,,,,,,,
19.76,0.00163,172.84,,,,,,,
19.76,0.00166,172.42,,,,,,,
19.77,0.00169,171.84,,,,,,,
19.77,0.00172,170.56,,,,,,,
19.78,0.00175,168.65,,,,,,,
19.78,0.00177,164.82,,,,,,,
19.81,0.00175,138.6,,,,,,,
19.81,0.00172,132.08,,,,,,,
19.82,0.00169,125.46,,,,,,,
19.82,0.00166,120.12,,,,,,,
19.82,0.00163,114.94,,,,,,,
19.83,0.0016,109.75,,,,,,,
19.83,0.00157,104.77,,,,,,,
19.83,0.00154,101.19,,,,,,,
19.84,0.00151,97.7,,,,,,,
19.84,0.00149,94.37,,,,,,,
19.84,0.00146,91.19,,,,,,,
19.85,0.00144,88.15,,,,,,,
19.85,0.00141,85.31,,,,,,,
19.85,0.00139,82.69,,,,,,,
19.86,0.00135,79.45,,,,,,,
19.86,0.00132,76.63,,,,,,,
19.86,0.00129,74.23,,,,,,,
19.87,0.00126,72.2,,,,,,,
19.87,0.00125,71.31,,,,,,,
19.87,0.00124,70.54,,,,,,,
19.88,0.00121,68.98,,,,,,,
19.88,0.00118,68.05,,,,,,,
19.89,0.00116,67.57,,,,,,,
19.89,0.00113,67.83,,,,,,,
19.94,0.00116,84.26,,,,,,,
19.96,0.00118,87.67,,,,,,,
19.97,0.00121,90.13,,,,,,,
19.98,0.00124,91.7,,,,,,,
20.0,0.00126,90.25,,,,,,,
20.04,0.00124,80.15,,,,,,,
20.05,0.00121,75.1,,,,,,,
20.06,0.00118,70.94,,,,,,,
20.08,0.00116,67.02,,,,,,,
20.09,0.00113,63.55,,,,,,,
20.1,0.0011,60.41,,,,,,,
20.11,0.00108,57.64,,,,,,,
20.13,0.00105,55.13,,,,,,,
20.15,0.00103,52.68,,,,,,,
20.2,0.001,49.14,,,,,,,
20.24,0.00098,44.51,,,,,,,
20.27,0.00095,40.1,,,,,,,
20.29,0.00093,35.66,,,,,,,
20.32,0.0009,31.79,,,,,,,
20.35,0.00087,27.74,,,,,,,
20.37,0.00085,23.66,,,,,,,
20.4,0.00082,19.75,,,,,,,
20.42,0.0008,15.93,,,,,,,
20.45,0.00077,11.87,,,,,,,
20.48,0.00075,7.83,,,,,,,
20.5,0.00072,4.06,,,,,,,
20.53,0.0007,0.22,,,,,,,
20.56,0.00067,-3.66,,,,,,,
20.58,0.00065,-7.18,,,,,,,
20.61,0.00062,-10.84,,,,,,,
20.64,0.00059,-14.42,,,,,,,
20.67,0.00057,-15.64,,,,,,,
20.79,0.00054,-24.09,,,,,,,
20.81,0.00052,-29.25,,,,,,,
20.82,0.00049,-34.04,,,,,,,
20.84,0.00047,-39.74,,,,,,,
20.85,0.00044,-43.95,,,,,,,
20.86,0.00042,-47.36,,,,,,,
20.87,0.00039,-50.58,,,,,,,
20.88,0.00036,-53.44,,,,,,,
20.9,0.00034,-55.98,,,,,,,
20.92,0.00031,-58.01,,,,,,,
20.96,0.00028,-59.91,,,,,,,
21.02,0.00026,-65.04,,,,,,,
21.05,0.00023,-69.97,,,,,,,
21.08,0.00021,-74.28,,,,,,,
21.1,0.00018,-77.89,,,,,,,
21.12,0.00016,-81.18,,,,,,,
21.14,0.00013,-84.27,,,,,,,
21.17,0.00011,-87.57,,,,,,,
21.2,8e-05,-90.85,,,,,,,
21.23,6e-05,-94.55,,,,,,,
21.26,3e-05,-98.6,,,,,,,
21.29,0.0,-102.5,,,,,,,
21.32,-2e-05,-106.3,,,,,,,
21.35,-5e-05,-109.8,,,,,,,
21.37,-7e-05,-113.1,,,,,,,
21.39,-0.0001,-116.2,,,,,,,
21.42,-0.00012,-119.4,,,,,,,
21.44,-0.00015,-122.4,,,,,,,
21.45,-0.00017,-125.2,,,,,,,
21.47,-0.0002,-127.2,,,,,,,
21.48,-0.00022,-128.7,,,,,,,
21.49,-0.00025,-129.9,,,,,,,
21.5,-0.00028,-130.8,,,,,,,
21.51,-0.0003,-131.5,,,,,,,
21.53,-0.00033,-131.9,,,,,,,
21.55,-0.00035,-131.6,,,,,,,
21.65,-0.00038,-137.5,,,,,,,
21.67,-0.0004,-141.4,,,,,,,
21.69,-0.00043,-142.4,,,,,,,
21.7,-0.00046,-143.4,,,,,,,
21.7,-0.00048,-144.1,,,,,,,
21.7,-0.00051,-144.6,,,,,,,
21.71,-0.00054,-145.1,,,,,,,
21.71,-0.00057,-145.6,,,,,,,
21.72,-0.0006,-145.9,,,,,,,
21.72,-0.00062,-146.1,,,,,,,
21.73,-0.00065,-145.9,,,,,,,
21.74,-0.00068,-144.8,,,,,,,
21.78,-0.00065,-130.5,,,,,,,
21.79,-0.00062,-126.8,,,,,,,
21.8,-0.0006,-124.3,,,,,,,
21.81,-0.00057,-122.4,,,,,,,
21.83,-0.00054,-121.8,,,,,,,
21.88,-0.00057,-136.2,,,,,,,
21.89,-0.0006,-140.4,,,,,,,
21.9,-0.00062,-144.0,,,,,,,
21.91,-0.00065,-147.3,,,,,,,
21.92,-0.00067,-150.2,,,,,,,
21.93,-0.0007,-152.8,,,,,,,
21.94,-0.00073,-155.0,,,,,,,
21.96,-0.00075,-156.4,,,,,,,
21.97,-0.00078,-156.5,,,,,,,
21.98,-0.00081,-156.4,,,,,,,
21.99,-0.00083,-156.2,,,,,,,
22.0,-0.00086,-156.1,,,,,,,
22.0,-0.00088,-155.9,,,,,,,
22.01,-0.00091,-155.2,,,,,,,
22.07,-0.00088,-141.2,,,,,,,
22.08,-0.00086,-138.7,,,,,,,
22.1,-0.00083,-138.0,,,,,,,
22.16,-0.00086,-149.3,,,,,,,
22.17,-0.00088,-153.6,,,,,,,
22.18,-0.00091,-157.4,,,,,,,
22.19,-0.00094,-160.7,,,,,,,
22.21,-0.00096,-163.6,,,,,,,
22.22,-0.00099,-164.1,,,,,,,
22.23,-0.00102,-164.5,,,,,,,
22.23,-0.00105,-165.0,,,,,,,
22.24,-0.00108,-165.3,,,,,,,
22.24,-0.0011,-165.5,,,,,,,
22.24,-0.00113,-165.5,,,,,,,
22.25,-0.00116,-165.5,,,,,,,
22.25,-0.00119,-165.3,,,,,,,
22.26,-0.00122,-164.9,,,,,,,
22.26,-0.00125,-164.2,,,,,,,
22.27,-0.00127,-162.2,,,,,,,
22.31,-0.00125,-142.7,,,,,,,
22.31,-0.00122,-138.1,,,,,,,
22.32,-0.00119,-134.4,,,,,,,
22.33,-0.00117,-131.2,,,,,,,
22.33,-0.00114,-128.6,,,,,,,
22.34,-0.00111,-126.2,,,,,,,
22.35,-0.00108,-124.7,,,,,,,
22.36,-0.00106,-124.3,,,,,,,
22.41,-0.00108,-141.8,,,,,,,
22.42,-0.00111,-146.5,,,,,,,
22.43,-0.00114,-150.6,,,,,,,
22.44,-0.00116,-154.1,,,,,,,
22.45,-0.00119,-157.5,,,,,,,
22.46,-0.00122,-160.5,,,,,,,
22.47,-0.00124,-163.2,,,,,,,
22.48,-0.00127,-165.5,,,,,,,
22.49,-0.0013,-167.3,,,,,,,
22.51,-0.00132,-168.6,,,,,,,
22.6,-0.00135,-171.4,,,,,,,
22.69,-0.00132,-159.3,,,,,,,
22.71,-0.00129,-155.0,,,,,,,
22.72,-0.00127,-151.3,,,,,,,
22.74,-0.00124,-147.9,,,,,,,
22.75,-0.00122,-144.8,,,,,,,
22.77,-0.00119,-141.7,,,,,,,
22.8,-0.00117,-138.9,,,,,,,
22.83,-0.00114,-135.5,,,,,,,
22.87,-0.00112,-131.0,,,,,,,
22.9,-0.00109,-126.4,,,,,,,
22.93,-0.00107,-122.3,,,,,,,
22.95,-0.00104,-118.4,,,,,,,
22.98,-0.00102,-114.5,,,,,,,
23.0,-0.00099,-110.7,,,,,,,
23.03,-0.00097,-107.0,,,,,,,
23.05,-0.00094,-103.1,,,,,,,
23.08,-0.00091,-99.2,,,,,,,
23.11,-0.00089,-95.13,,,,,,,
23.14,-0.00086,-90.93,,,,,,,
23.17,-0.00084,-86.79,,,,,,,
23.19,-0.00081,-82.87,,,,,,,
23.22,-0.00079,-78.96,,,,,,,
23.25,-0.00076,-74.87,,,,,,,
23.27,-0.00074,-71.07,,,,,,,
23.3,-0.00071,-67.22,,,,,,,
23.32,-0.00069,-63.19,,,,,,,
23.35,-0.00066,-59.47,,,,,,,
23.38,-0.00063,-55.55,,,,,,,
23.41,-0.00061,-51.22,,,,,,,
23.43,-0.00058,-47.45,,,,,,,
23.46,-0.00056,-43.4,,,,,,,
23.49,-0.00053,-39.37,,,,,,,
23.51,-0.00051,-35.27,,,,,,,
23.54,-0.00048,-30.95,,,,,,,
23.56,-0.00046,-27.38,,,,,,,
23.59,-0.00043,-24.03,,,,,,,
23.61,-0.00041,-20.29,,,,,,,
23.64,-0.00038,-16.23,,,,,,,
23.67,-0.00035,-11.93,,,,,,,
23.7,-0.00033,-7.78,,,,,,,
23.73,-0.0003,-3.65,,,,,,,
23.76,-0.00028,0.36,,,,,,,
23.78,-0.00025,4.26,,,,,,,
23.81,-0.00023,8.14,,,,,,,
23.83,-0.0002,11.78,,,,,,,
23.86,-0.00018,15.55,,,,,,,
23.89,-0.00015,19.46,,,,,,,
23.91,-0.00013,23.2,,,,,,,
23.94,-0.0001,26.84,,,,,,,
48.01,-9e-05,61.85,,,,,,,
48.02,-6e-05,64.68,,,,,,,
48.03,-4e-05,67.1,,,,,,,
48.05,-1e-05,69.22,,,,,,,
48.07,2e-05,71.06,,,,,,,
48.14,4e-05,74.69,,,,,,,
48.18,7e-05,79.94,,,,,,,
48.21,9e-05,84.27,,,,,,,
48.23,0.00012,87.94,,,,,,,
48.25,0.00014,91.37,,,,,,,
48.28,0.00017,94.66,,,,,,,
48.3,0.00019,97.86,,,,,,,
48.33,0.00022,101.08,,,,,,,
48.36,0.00024,104.45,,,,,,,
48.39,0.00027,107.99,,,,,,,
48.42,0.00029,111.8,,,,,,,
48.45,0.00032,115.45,,,,,,,
48.48,0.00034,119.16,,,,,,,
48.5,0.00037,122.78,,,,,,,
48.53,0.0004,126.25,,,,,,,
48.56,0.00042,129.52,,,,,,,
48.58,0.00045,132.69,,,,,,,
48.61,0.00047,136.01,,,,,,,
48.64,0.0005,139.23,,,,,,,
48.67,0.00052,142.51,,,,,,,
48.69,0.00055,145.62,,,,,,,
48.72,0.00057,148.33,,,,,,,
48.74,0.0006,150.67,,,,,,,
48.75,0.00062,152.65,,,,,,,
48.77,0.00065,154.17,,,,,,,
48.78,0.00068,155.07,,,,,,,
48.79,0.0007,155.8,,,,,,,
48.8,0.00073,156.25,,,,,,,
48.81,0.00076,156.53,,,,,,,
48.81,0.00078,156.72,,,,,,,
48.82,0.00081,156.65,,,,,,,
48.83,0.00083,156.18,,,,,,,
48.9,0.00081,146.1,,,,,,,
48.98,0.00083,157.62,,,,,,,
48.99,0.00086,161.25,,,,,,,
49.0,0.00088,164.5,,,,,,,
49.01,0.00091,166.95,,,,,,,
49.03,0.00094,166.94,,,,,,,
49.03,0.00096,167.24,,,,,,,
49.04,0.00099,167.67,,,,,,,
49.04,0.00102,168.05,,,,,,,
49.05,0.00105,168.34,,,,,,,
49.05,0.00108,168.55,,,,,,,
49.05,0.00111,168.64,,,,,,,
49.06,0.00113,168.61,,,,,,,
49.06,0.00116,168.41,,,,,,,
49.07,0.00119,167.76,,,,,,,
49.08,0.00121,165.78,,,,,,,
49.11,0.00119,149.96,,,,,,,
49.12,0.00116,145.69,,,,,,,
49.13,0.00114,142.25,,,,,,,
49.14,0.00111,139.4,,,,,,,
49.15,0.00108,136.96,,,,,,,
49.16,0.00106,135.24,,,,,,,
49.17,0.00103,134.84,,,,,,,
49.22,0.00106,148.81,,,,,,,
49.23,0.00108,153.12,,,,,,,
49.24,0.00111,157.01,,,,,,,
49.25,0.00113,160.14,,,,,,,
49.26,0.00116,163.03,,,,,,,
49.27,0.00119,165.82,,,,,,,
49.28,0.00121,168.23,,,,,,,
49.29,0.00124,170.29,,,,,,,
49.31,0.00127,171.9,,,,,,,
49.35,0.00129,173.2,,,,,,,
49.41,0.00132,177.65,,,,,,,
49.44,0.00134,181.27,,,,,,,
49.46,0.00137,179.17,,,,,,,
49.46,0.00139,180.23,,,,,,,
49.47,0.00142,180.65,,,,,,,
49.48,0.00145,180.4,,,,,,,
49.48,0.00147,180.16,,,,,,,
49.49,0.0015,180.2,,,,,,,
49.49,0.00153,180.25,,,,,,,
49.49,0.00156,180.23,,,,,,,
49.5,0.00159,180.18,,,,,,,
49.5,0.00161,180.04,,,,,,,
49.5,0.00164,179.81,,,,,,,
49.51,0.00167,179.38,,,,,,,
49.51,0.0017,178.72,,,,,,,
49.52,0.00172,177.4,,,,,,,
49.52,0.00175,173.92,,,,,,,
49.55,0.00172,155.18,,,,,,,
49.56,0.00169,148.93,,,,,,,
49.56,0.00167,143.58,,,,,,,
49.57,0.00164,139.13,,,,,,,
49.57,0.00161,134.82,,,,,,,
49.58,0.00158,130.62,,,,,,,
49.58,0.00155,126.7,,,,,,,
49.59,0.00152,123.06,,,,,,,
49.59,0.0015,119.63,,,,,,,
49.6,0.00147,116.6,,,,,,,
49.6,0.00144,113.93,,,,,,,
49.61,0.00141,111.48,,,,,,,
49.61,0.00139,109.15,,,,,,,
49.62,0.00136,107.37,,,,,,,
49.62,0.00134,105.85,,,,,,,
49.63,0.00131,104.84,,,,,,,
49.65,0.00128,104.9,,,,,,,
49.7,0.00131,112.92,,,,,,,
49.73,0.00133,113.77,,,,,,,
49.79,0.00131,103.62,,,,,,,
49.8,0.00128,99.46,,,,,,,
49.82,0.00126,95.7,,,,,,,
49.83,0.00123,92.29,,,,,,,
49.85,0.0012,89.04,,,,,,,
49.86,0.00118,86.09,,,,,,,
49.87,0.00117,85.23,,,,,,,
49.88,0.00115,83.22,,,,,,,
49.91,0.00113,80.16,,,,,,,
49.95,0.0011,76.01,,,,,,,
49.99,0.00108,71.32,,,,,,,
50.01,0.00105,67.14,,,,,,,
50.04,0.00103,63.26,,,,,,,
50.06,0.001,59.55,,,,,,,
50.08,0.00098,56.13,,,,,,,
50.11,0.00095,52.61,,,,,,,
50.14,0.00093,48.58,,,,,,,
50.17,0.0009,44.5,,,,,,,
50.2,0.00087,40.7,,,,,,,
50.22,0.00085,36.98,,,,,,,
50.25,0.00082,33.3,,,,,,,
50.27,0.0008,29.6,,,,,,,
50.3,0.00077,25.85,,,,,,,
50.33,0.00075,22.28,,,,,,,
50.35,0.00072,18.52,,,,,,,
50.38,0.0007,14.95,,,,,,,
50.41,0.00067,11.29,,,,,,,
50.43,0.00064,7.54,,,,,,,
50.46,0.00062,4.05,,,,,,,
50.48,0.00059,0.71,,,,,,,
50.51,0.00057,-2.59,,,,,,,
50.54,0.00054,-6.32,,,,,,,
50.57,0.00052,-10.4,,,,,,,
50.6,0.00049,-14.14,,,,,,,
50.64,0.00047,-15.33,,,,,,,
50.73,0.00044,-25.82,,,,,,,
50.75,0.00041,-32.0,,,,,,,
50.76,0.00039,-36.62,,,,,,,
50.77,0.00036,-40.39,,,,,,,
50.78,0.00034,-43.44,,,,,,,
50.79,0.00031,-46.33,,,,,,,
50.8,0.00028,-48.89,,,,,,,
50.82,0.00026,-51.09,,,,,,,
50.84,0.00023,-53.05,,,,,,,
50.91,0.00021,-57.4,,,,,,,
50.95,0.00018,-62.69,,,,,,,
50.98,0.00016,-67.23,,,,,,,
51.0,0.00013,-71.1,,,,,,,
51.02,0.00011,-74.5,,,,,,,
51.05,8e-05,-77.71,,,,,,,
51.07,5e-05,-80.93,,,,,,,
51.11,3e-05,-84.7,,,,,,,
51.14,0.0,-88.85,,,,,,,
51.17,-2e-05,-93.2,,,,,,,
51.2,-5e-05,-97.23,,,,,,,
51.23,-7e-05,-101.0,,,,,,,
51.25,-0.0001,-104.8,,,,,,,
51.28,-0.00012,-108.5,,,,,,,
51.3,-0.00015,-111.9,,,,,,,
51.33,-0.00017,-115.5,,,,,,,
51.36,-0.0002,-118.7,,,,,,,
51.38,-0.00022,-121.8,,,,,,,
51.41,-0.00025,-125.1,,,,,,,
51.43,-0.00028,-129.2,,,,,,,
51.46,-0.0003,-132.9,,,,,,,
51.48,-0.00033,-136.4,,,,,,,
51.49,-0.00035,-139.3,,,,,,,
51.51,-0.00038,-141.6,,,,,,,
51.52,-0.0004,-143.3,,,,,,,
51.53,-0.00043,-144.5,,,,,,,
51.54,-0.00046,-145.3,,,,,,,
51.55,-0.00048,-146.0,,,,,,,
51.56,-0.00051,-146.4,,,,,,,
51.57,-0.00054,-146.5,,,,,,,
51.59,-0.00056,-145.8,,,,,,,
51.71,-0.00059,-149.0,,,,,,,
51.73,-0.00061,-152.8,,,,,,,
51.75,-0.00064,-156.1,,,,,,,
51.76,-0.00066,-157.6,,,,,,,
51.78,-0.00069,-157.1,,,,,,,
51.78,-0.00072,-157.6,,,,,,,
51.79,-0.00074,-158.0,,,,,,,
51.79,-0.00077,-158.3,,,,,,,
51.8,-0.0008,-158.7,,,,,,,
51.8,-0.00083,-158.8,,,,,,,
51.81,-0.00085,-158.7,,,,,,,
51.81,-0.00088,-158.4,,,,,,,
51.82,-0.00091,-157.7,,,,,,,
51.83,-0.00093,-154.7,,,,,,,
51.86,-0.00091,-143.3,,,,,,,
51.87,-0.00088,-139.0,,,,,,,
51.88,-0.00085,-135.7,,,,,,,
51.89,-0.00083,-133.2,,,,,,,
51.9,-0.0008,-131.4,,,,,,,
51.92,-0.00077,-131.3,,,,,,,
51.96,-0.0008,-143.3,,,,,,,
51.98,-0.00082,-147.9,,,,,,,
51.99,-0.00085,-151.9,,,,,,,
52.0,-0.00088,-155.2,,,,,,,
52.01,-0.0009,-158.1,,,,,,,
52.02,-0.00093,-160.9,,,,,,,
52.03,-0.00095,-163.1,,,,,,,
52.04,-0.00098,-165.1,,,,,,,
52.06,-0.00101,-166.6,,,,,,,
52.1,-0.00103,-167.8,,,,,,,
52.15,-0.00106,-171.2,,,,,,,
52.18,-0.00108,-171.3,,,,,,,
52.19,-0.00111,-171.4,,,,,,,
52.19,-0.00113,-171.8,,,,,,,
52.2,-0.00116,-172.1,,,,,,,
52.2,-0.00119,-172.4,,,,,,,
52.21,-0.00122,-172.7,,,,,,,
52.21,-0.00125,-172.8,,,,,,,
52.21,-0.00127,-172.8,,,,,,,
52.22,-0.0013,-172.6,,,,,,,
52.22,-0.00133,-172.0,,,,,,,
52.23,-0.00136,-170.7,,,,,,,
52.27,-0.00133,-151.0,,,,,,,
52.28,-0.00131,-147.1,,,,,,,
52.29,-0.00128,-143.7,,,,,,,
52.3,-0.00125,-140.9,,,,,,,
52.31,-0.00123,-138.5,,,,,,,
52.32,-0.0012,-136.9,,,,,,,
52.33,-0.00117,-136.8,,,,,,,
52.38,-0.0012,-151.8,,,,,,,
52.39,-0.00123,-156.4,,,,,,,
52.4,-0.00125,-160.3,,,,,,,
52.41,-0.00128,-163.8,,,,,,,
52.42,-0.00131,-166.9,,,,,,,
52.42,-0.00133,-169.6,,,,,,,
52.43,-0.00136,-172.1,,,,,,,
52.44,-0.00138,-174.0,,,,,,,
52.46,-0.00141,-175.7,,,,,,,
52.48,-0.00143,-176.7,,,,,,,
52.51,-0.00146,-174.8,,,,,,,
52.52,-0.00149,-174.6,,,,,,,
52.53,-0.00151,-174.5,,,,,,,
52.6,-0.00149,-157.2,,,,,,,
52.61,-0.00146,-152.9,,,,,,,
52.62,-0.00143,-149.0,,,,,,,
52.63,-0.00141,-145.6,,,,,,,
52.64,-0.00138,-142.4,,,,,,,
52.66,-0.00136,-139.6,,,,,,,
52.67,-0.00133,-137.0,,,,,,,
52.69,-0.0013,-134.5,,,,,,,
52.74,-0.00128,-131.6,,,,,,,
52.78,-0.00125,-126.8,,,,,,,
52.81,-0.00123,-122.2,,,,,,,
52.84,-0.0012,-118.0,,,,,,,
52.86,-0.00118,-114.0,,,,,,,
52.89,-0.00115,-110.4,,,,,,,
52.91,-0.00113,-106.8,,,,,,,
52.94,-0.0011,-103.1,,,,,,,
52.96,-0.00108,-99.42,,,,,,,
52.99,-0.00105,-95.65,,,,,,,
53.02,-0.00102,-91.71,,,,,,,
53.05,-0.001,-87.76,,,,,,,
53.08,-0.00097,-83.46,,,,,,,
53.11,-0.00095,-79.13,,,,,,,
53.13,-0.00092,-75.12,,,,,,,
53.16,-0.0009,-71.47,,,,,,,
53.18,-0.00087,-67.76,,,,,,,
53.21,-0.00085,-64.04,,,,,,,
53.23,-0.00082,-60.46,,,,,,,
53.26,-0.00079,-56.68,,,,,,,
53.29,-0.00077,-52.63,,,,,,,
53.31,-0.00074,-49.06,,,,,,,
53.34,-0.00072,-45.19,,,,,,,
53.37,-0.00069,-41.21,,,,,,,
53.4,-0.00067,-37.46,,,,,,,
53.42,-0.00064,-33.68,,,,,,,
53.45,-0.00062,-29.78,,,,,,,
53.47,-0.00059,-26.0,,,,,,,
53.5,-0.00057,-22.29,,,,,,,
53.53,-0.00054,-18.49,,,,,,,
53.56,-0.00051,-14.65,,,,,,,
53.58,-0.00049,-10.78,,,,,,,
53.61,-0.00046,-7.18,,,,,,,
53.63,-0.00044,-3.61,,,,,,,
53.66,-0.00041,0.01,,,,,,,
53.69,-0.00039,3.7,,,,,,,
53.72,-0.00036,7.84,,,,,,,
53.75,-0.00034,11.89,,,,,,,
53.77,-0.00031,15.86,,,,,,,
53.8,-0.00029,19.76,,,,,,,
53.82,-0.00026,23.38,,,,,,,
53.85,-0.00023,27.08,,,,,,,
53.88,-0.00021,30.82,,,,,,,
53.91,-0.00018,33.6,,,,,,,
108.09,-0.00011,77.73,,,,,,,
108.12,-8e-05,81.96,,,,,,,
108.15,-5e-05,85.6,,,,,,,
108.17,-3e-05,88.93,,,,,,,
108.2,-0.0,92.18,,,,,,,
108.22,2e-05,95.37,,,,,,,
108.25,5e-05,98.55,,,,,,,
108.28,7e-05,102.17,,,,,,,
108.31,0.0001,105.78,,,,,,,
108.34,0.00012,109.53,,,,,,,
108.37,0.00015,113.15,,,,,,,
108.4,0.00017,116.37,,,,,,,
108.42,0.0002,119.81,,,,,,,
108.45,0.00023,123.28,,,,,,,
108.48,0.00025,126.52,,,,,,,
108.5,0.00028,129.89,,,,,,,
108.53,0.0003,133.47,,,,,,,
108.56,0.00033,136.81,,,,,,,
108.59,0.00035,140.16,,,,,,,
108.61,0.00038,143.35,,,,,,,
108.64,0.0004,146.49,,,,,,,
108.66,0.00043,149.66,,,,,,,
108.69,0.00045,152.83,,,,,,,
108.71,0.00048,155.77,,,,,,,
108.73,0.00051,158.07,,,,,,,
108.74,0.00053,159.08,,,,,,,
108.75,0.00056,160.1,,,,,,,
108.76,0.00058,160.73,,,,,,,
108.77,0.00061,161.26,,,,,,,
108.77,0.00064,161.54,,,,,,,
108.78,0.00066,161.66,,,,,,,
108.79,0.00069,161.5,,,,,,,
108.8,0.00072,160.86,,,,,,,
108.89,0.00069,150.32,,,,,,,
108.95,0.00072,159.59,,,,,,,
108.96,0.00074,163.44,,,,,,,
108.98,0.00077,166.96,,,,,,,
108.99,0.00079,170.02,,,,,,,
109.0,0.00082,170.31,,,,,,,
109.01,0.00085,171.19,,,,,,,
109.01,0.00088,171.7,,,,,,,
109.02,0.00091,172.2,,,,,,,
109.02,0.00094,172.48,,,,,,,
109.03,0.00097,172.73,,,,,,,
109.03,0.001,172.86,,,,,,,
109.03,0.00103,172.83,,,,,,,
109.04,0.00105,172.57,,,,,,,
109.04,0.00108,171.88,,,,,,,
109.05,0.00111,170.11,,,,,,,
109.09,0.00108,152.5,,,,,,,
109.1,0.00106,148.48,,,,,,,
109.1,0.00103,144.82,,,,,,,
109.11,0.001,141.7,,,,,,,
109.12,0.00097,139.21,,,,,,,
109.13,0.00095,137.34,,,,,,,
109.14,0.00092,136.26,,,,,,,
109.16,0.0009,138.65,,,,,,,
109.19,0.00092,148.01,,,,,,,
109.2,0.00095,152.88,,,,,,,
109.21,0.00098,156.99,,,,,,,
109.22,0.001,160.43,,,,,,,
109.23,0.00103,163.53,,,,,,,
109.24,0.00105,166.41,,,,,,,
109.25,0.00108,169.0,,,,,,,
109.26,0.0011,171.28,,,,,,,
109.27,0.00113,173.21,,,,,,,
109.29,0.00115,174.72,,,,,,,
109.32,0.00118,175.59,,,,,,,
109.39,0.00121,178.89,,,,,,,
109.42,0.00123,181.32,,,,,,,
109.43,0.00126,180.97,,,,,,,
109.44,0.00129,181.93,,,,,,,
109.45,0.00131,182.61,,,,,,,
109.45,0.00134,183.26,,,,,,,
109.46,0.00136,183.71,,,,,,,
109.47,0.00139,183.84,,,,,,,
109.48,0.00142,183.52,,,,,,,
109.5,0.00144,181.91,,,,,,,
109.54,0.00142,173.3,,,,,,,
109.57,0.00139,171.53,,,,,,,
109.64,0.00142,180.26,,,,,,,
109.66,0.00144,182.15,,,,,,,
109.74,0.00142,166.65,,,,,,,
109.76,0.00139,162.49,,,,,,,
109.77,0.00137,158.76,,,,,,,
109.78,0.00134,155.39,,,,,,,
109.8,0.00132,152.05,,,,,,,
109.82,0.00129,148.87,,,,,,,
109.84,0.00126,145.83,,,,,,,
109.87,0.00124,142.86,,,,,,,
109.88,0.00124,141.99,,,,,,,
109.92,0.00121,137.18,,,,,,,
109.95,0.00119,132.51,,,,,,,
109.97,0.00116,128.17,,,,,,,
110.0,0.00114,124.11,,,,,,,
110.02,0.00111,120.26,,,,,,,
110.05,0.00109,116.54,,,,,,,
110.07,0.00106,112.75,,,,,,,
110.1,0.00103,108.77,,,,,,,
110.13,0.00101,104.97,,,,,,,
110.16,0.00098,101.06,,,,,,,
110.18,0.00096,97.15,,,,,,,
110.21,0.00093,93.25,,,,,,,
110.24,0.00091,89.21,,,,,,,
110.26,0.00088,85.53,,,,,,,
110.29,0.00086,81.99,,,,,,,
110.31,0.00083,78.24,,,,,,,
110.34,0.0008,74.75,,,,,,,
110.36,0.00078,71.35,,,,,,,
110.39,0.00075,67.72,,,,,,,
110.42,0.00073,64.19,,,,,,,
110.45,0.0007,60.62,,,,,,,
110.48,0.00068,56.63,,,,,,,
110.5,0.00065,52.65,,,,,,,
110.53,0.00063,48.81,,,,,,,
110.56,0.0006,44.58,,,,,,,
110.59,0.00058,40.54,,,,,,,
110.61,0.00055,36.4,,,,,,,
110.64,0.00052,31.94,,,,,,,
110.67,0.0005,27.62,,,,,,,
110.7,0.00047,23.42,,,,,,,
110.72,0.00045,19.66,,,,,,,
110.74,0.00042,15.83,,,,,,,
110.77,0.0004,11.86,,,,,,,
110.8,0.00037,7.86,,,,,,,
110.83,0.00034,3.68,,,,,,,
110.86,0.00032,-0.25,,,,,,,
110.88,0.00029,-4.2,,,,,,,
110.91,0.00027,-8.2,,,,,,,
110.94,0.00024,-11.97,,,,,,,
110.96,0.00022,-15.44,,,,,,,
111.07,0.00019,-20.27,,,,,,,
111.09,0.00017,-27.67,,,,,,,
111.11,0.00014,-33.31,,,,,,,
111.12,0.00012,-37.61,,,,,,,
111.13,9e-05,-41.22,,,,,,,
111.14,7e-05,-44.5,,,,,,,
111.15,4e-05,-47.17,,,,,,,
111.16,1e-05,-49.52,,,,,,,
111.17,-1e-05,-51.58,,,,,,,
111.19,-4e-05,-53.1,,,,,,,
111.25,-6e-05,-54.83,,,,,,,
111.31,-9e-05,-60.35,,,,,,,
111.33,-0.00011,-64.71,,,,,,,
111.36,-0.00014,-68.44,,,,,,,
111.38,-0.00017,-71.88,,,,,,,
111.4,-0.00019,-74.86,,,,,,,
111.43,-0.00022,-78.08,,,,,,,
111.46,-0.00024,-81.36,,,,,,,
111.49,-0.00027,-84.81,,,,,,,
111.51,-0.00029,-88.0,,,,,,,
111.54,-0.00032,-91.05,,,,,,,
111.57,-0.00034,-93.89,,,,,,,
111.59,-0.00037,-97.15,,,,,,,
111.62,-0.00039,-100.3,,,,,,,
111.65,-0.00042,-103.5,,,,,,,
111.68,-0.00044,-106.5,,,,,,,
111.7,-0.00047,-109.3,,,,,,,
111.73,-0.0005,-112.1,,,,,,,
111.75,-0.00052,-114.8,,,,,,,
111.79,-0.00055,-118.2,,,,,,,
111.82,-0.00057,-122.4,,,,,,,
111.84,-0.0006,-126.7,,,,,,,
111.86,-0.00062,-130.4,,,,,,,
111.88,-0.00065,-134.0,,,,,,,
111.9,-0.00068,-137.4,,,,,,,
111.92,-0.0007,-140.5,,,,,,,
111.93,-0.00073,-143.5,,,,,,,
111.96,-0.00075,-146.6,,,,,,,
111.98,-0.00078,-149.6,,,,,,,
112.0,-0.0008,-152.5,,,,,,,
112.02,-0.00083,-155.3,,,,,,,
112.05,-0.00085,-158.0,,,,,,,
112.07,-0.00088,-160.2,,,,,,,
112.09,-0.00091,-161.9,,,,,,,
112.1,-0.00093,-163.0,,,,,,,
112.11,-0.00096,-163.8,,,,,,,
112.12,-0.00098,-164.5,,,,,,,
112.14,-0.00101,-164.8,,,,,,,
112.15,-0.00104,-164.7,,,,,,,
112.26,-0.00106,-166.0,,,,,,,
112.29,-0.00109,-169.9,,,,,,,
112.31,-0.00111,-173.2,,,,,,,
112.33,-0.00114,-175.8,,,,,,,
112.34,-0.00116,-175.0,,,,,,,
112.34,-0.00119,-175.5,,,,,,,
112.35,-0.00123,-175.8,,,,,,,
112.35,-0.00125,-176.0,,,,,,,
112.35,-0.00128,-176.1,,,,,,,
112.36,-0.00131,-176.2,,,,,,,
112.36,-0.00133,-176.2,,,,,,,
112.36,-0.00136,-176.2,,,,,,,
112.37,-0.00139,-176.0,,,,,,,
112.37,-0.00141,-175.6,,,,,,,
112.38,-0.00144,-174.0,,,,,,,
112.42,-0.00141,-155.9,,,,,,,
112.42,-0.00139,-151.6,,,,,,,
112.43,-0.00136,-147.5,,,,,,,
112.44,-0.00133,-144.6,,,,,,,
112.45,-0.0013,-141.8,,,,,,,
112.46,-0.00128,-139.8,,,,,,,
112.46,-0.00125,-138.3,,,,,,,
112.48,-0.00123,-138.5,,,,,,,
112.52,-0.00125,-152.7,,,,,,,
112.53,-0.00128,-157.5,,,,,,,
112.54,-0.0013,-161.5,,,,,,,
112.55,-0.00133,-165.1,,,,,,,
112.56,-0.00136,-168.4,,,,,,,
112.57,-0.00139,-171.3,,,,,,,
112.58,-0.00141,-173.9,,,,,,,
112.59,-0.00144,-176.2,,,,,,,
112.6,-0.00146,-177.9,,,,,,,
112.62,-0.00149,-179.0,,,,,,,
112.7,-0.00146,-164.7,,,,,,,
112.71,-0.00144,-160.4,,,,,,,
112.72,-0.00141,-156.7,,,,,,,
112.74,-0.00139,-153.1,,,,,,,
112.75,-0.00136,-149.7,,,,,,,
112.77,-0.00133,-146.5,,,,,,,
112.79,-0.00131,-143.7,,,,,,,
112.82,-0.00128,-140.6,,,,,,,
112.87,-0.00126,-136.0,,,,,,,
112.9,-0.00123,-131.2,,,,,,,
112.93,-0.00121,-126.7,,,,,,,
112.95,-0.00118,-122.5,,,,,,,
112.98,-0.00115,-118.6,,,,,,,
113.0,-0.00113,-114.6,,,,,,,
113.03,-0.0011,-110.9,,,,,,,
113.05,-0.00108,-107.1,,,,,,,
113.08,-0.00105,-103.5,,,,,,,
113.11,-0.00103,-99.75,,,,,,,
113.13,-0.001,-96.03,,,,,,,
113.16,-0.00098,-92.34,,,,,,,
113.19,-0.00095,-88.68,,,,,,,
113.21,-0.00093,-84.92,,,,,,,
113.24,-0.0009,-81.32,,,,,,,
113.27,-0.00087,-77.72,,,,,,,
113.29,-0.00085,-73.98,,,,,,,
113.32,-0.00082,-70.47,,,,,,,
113.34,-0.0008,-66.83,,,,,,,
113.37,-0.00077,-63.28,,,,,,,
113.4,-0.00075,-59.79,,,,,,,
113.42,-0.00072,-56.4,,,,,,,
113.45,-0.0007,-52.98,,,,,,,
113.48,-0.00067,-49.26,,,,,,,
113.5,-0.00065,-45.87,,,,,,,
113.53,-0.00062,-42.43,,,,,,,
113.56,-0.00059,-39.02,,,,,,,
113.59,-0.00057,-35.03,,,,,,,
113.61,-0.00054,-30.82,,,,,,,
113.64,-0.00052,-26.96,,,,,,,
113.66,-0.00049,-23.25,,,,,,,
113.69,-0.00047,-19.87,,,,,,,
113.71,-0.00044,-16.41,,,,,,,
113.75,-0.00042,-12.63,,,,,,,
113.77,-0.00039,-8.66,,,,,,,
113.8,-0.00037,-4.74,,,,,,,
113.83,-0.00034,-0.8,,,,,,,
113.85,-0.00032,2.93,,,,,,,
113.88,-0.00029,6.8,,,,,,,
113.91,-0.00026,10.74,,,,,,,
113.93,-0.00024,14.51,,,,,,,
113.96,-0.00021,18.56,,,,,,,
113.99,-0.00019,22.57,,,,,,,
114.02,-0.00016,26.5,,,,,,,
114.05,-0.00014,30.7,,,,,,,
114.08,-0.00011,34.13,,,,,,,
288.39,-5e-05,32.32,,,,,,,
288.43,-3e-05,32.15,,,,,,,
288.52,-0.0,43.81,,,,,,,
288.53,2e-05,48.98,,,,,,,
288.54,5e-05,53.25,,,,,,,
288.55,8e-05,56.82,,,,,,,
288.56,0.0001,59.91,,,,,,,
288.57,0.00013,62.72,,,,,,,
288.58,0.00016,65.23,,,,,,,
288.6,0.00018,67.19,,,,,,,
288.62,0.00021,68.66,,,,,,,
288.69,0.00023,70.61,,,,,,,
288.74,0.00026,76.9,,,,,,,
288.77,0.00029,81.29,,,,,,,
288.79,0.00031,85.19,,,,,,,
288.81,0.00034,88.7,,,,,,,
288.83,0.00036,91.78,,,,,,,
288.86,0.00039,94.99,,,,,,,
288.88,0.00041,98.01,,,,,,,
288.91,0.00044,101.21,,,,,,,
288.95,0.00046,105.13,,,,,,,
288.98,0.00049,109.13,,,,,,,
289.01,0.00052,112.88,,,,,,,
289.04,0.00054,116.91,,,,,,,
289.06,0.00057,120.77,,,,,,,
289.09,0.00059,124.67,,,,,,,
289.12,0.00062,128.59,,,,,,,
289.15,0.00064,132.34,,,,,,,
289.17,0.00067,136.15,,,,,,,
289.2,0.00069,139.61,,,,,,,
289.23,0.00072,142.98,,,,,,,
289.25,0.00074,146.3,,,,,,,
289.28,0.00077,149.56,,,,,,,
289.3,0.00079,152.68,,,,,,,
289.33,0.00082,156.44,,,,,,,
289.35,0.00084,159.91,,,,,,,
289.37,0.00087,163.19,,,,,,,
289.39,0.0009,166.68,,,,,,,
289.41,0.00092,169.72,,,,,,,
289.43,0.00095,172.46,,,,,,,
289.45,0.00097,174.35,,,,,,,
289.46,0.001,175.48,,,,,,,
289.47,0.00103,175.94,,,,,,,
289.48,0.00105,176.5,,,,,,,
289.49,0.00108,177.12,,,,,,,
289.5,0.0011,177.5,,,,,,,
289.53,0.00113,176.87,,,,,,,
289.63,0.00115,180.59,,,,,,,
289.65,0.00118,184.5,,,,,,,
289.67,0.0012,187.95,,,,,,,
289.69,0.00123,188.9,,,,,,,
289.7,0.00126,189.9,,,,,,,
289.7,0.00129,190.61,,,,,,,
289.71,0.00132,191.05,,,,,,,
289.71,0.00134,191.13,,,,,,,
289.72,0.00137,190.79,,,,,,,
289.72,0.0014,190.43,,,,,,,
289.73,0.00143,189.86,,,,,,,
289.73,0.00146,189.15,,,,,,,
289.74,0.00148,188.06,,,,,,,
289.79,0.00146,169.84,,,,,,,
289.8,0.00143,166.4,,,,,,,
289.81,0.0014,163.6,,,,,,,
289.82,0.00138,161.61,,,,,,,
289.83,0.00135,160.73,,,,,,,
289.87,0.00134,166.46,,,,,,,
289.89,0.00138,174.02,,,,,,,
289.9,0.00141,177.32,,,,,,,
289.92,0.00143,179.57,,,,,,,
289.93,0.00146,180.77,,,,,,,
289.96,0.00148,178.28,,,,,,,
289.99,0.00146,168.99,,,,,,,
290.0,0.00143,164.12,,,,,,,
290.02,0.00141,160.01,,,,,,,
290.03,0.00138,156.25,,,,,,,
290.04,0.00135,152.78,,,,,,,
290.05,0.00133,149.64,,,,,,,
290.07,0.0013,146.65,,,,,,,
290.08,0.00128,144.09,,,,,,,
290.11,0.00125,141.47,,,,,,,
290.15,0.00123,138.13,,,,,,,
290.19,0.0012,133.3,,,,,,,
290.22,0.00117,128.64,,,,,,,
290.25,0.00115,124.71,,,,,,,
290.27,0.00112,120.96,,,,,,,
290.29,0.0011,117.5,,,,,,,
290.32,0.00107,113.87,,,,,,,
290.34,0.00105,110.29,,,,,,,
290.37,0.00102,106.63,,,,,,,
290.4,0.001,102.75,,,,,,,
290.43,0.00097,99.14,,,,,,,
290.45,0.00095,95.53,,,,,,,
290.48,0.00092,91.76,,,,,,,
290.51,0.0009,88.19,,,,,,,
290.53,0.00087,84.55,,,,,,,
290.56,0.00084,80.97,,,,,,,
290.59,0.00082,77.17,,,,,,,
290.61,0.00079,73.52,,,,,,,
290.64,0.00077,69.87,,,,,,,
290.67,0.00074,66.23,,,,,,,
290.69,0.00072,62.69,,,,,,,
290.72,0.00069,59.01,,,,,,,
290.75,0.00067,55.43,,,,,,,
290.77,0.00064,51.98,,,,,,,
290.8,0.00062,48.14,,,,,,,
290.83,0.00059,44.46,,,,,,,
290.85,0.00057,40.62,,,,,,,
290.88,0.00054,36.74,,,,,,,
290.91,0.00051,33.03,,,,,,,
290.93,0.00049,29.41,,,,,,,
290.96,0.00046,25.9,,,,,,,
290.99,0.00044,21.99,,,,,,,
291.02,0.00041,17.93,,,,,,,
291.04,0.00039,14.05,,,,,,,
291.07,0.00036,10.08,,,,,,,
291.1,0.00034,6.22,,,,,,,
291.12,0.00031,2.29,,,,,,,
291.15,0.00029,-1.62,,,,,,,
291.18,0.00026,-5.34,,,,,,,
291.2,0.00023,-9.13,,,,,,,
291.23,0.00021,-12.61,,,,,,,
291.26,0.00018,-15.21,,,,,,,
291.37,0.00016,-20.8,,,,,,,
291.39,0.00013,-28.02,,,,,,,
291.4,0.0001,-33.46,,,,,,,
291.41,8e-05,-37.49,,,,,,,
291.42,5e-05,-41.12,,,,,,,
291.43,2e-05,-44.46,,,,,,,
291.45,-0.0,-46.9,,,,,,,
291.46,-3e-05,-49.18,,,,,,,
291.47,-5e-05,-51.04,,,,,,,
291.5,-8e-05,-52.51,,,,,,,
291.58,-0.0001,-57.23,,,,,,,
291.62,-0.00013,-62.64,,,,,,,
291.64,-0.00015,-67.21,,,,,,,
291.66,-0.00018,-70.93,,,,,,,
291.69,-0.0002,-74.24,,,,,,,
291.71,-0.00023,-77.59,,,,,,,
291.73,-0.00026,-80.63,,,,,,,
291.76,-0.00028,-83.72,,,,,,,
291.79,-0.00031,-86.81,,,,,,,
291.82,-0.00033,-90.5,,,,,,,
291.86,-0.00036,-94.25,,,,,,,
291.88,-0.00038,-97.83,,,,,,,
291.91,-0.00041,-101.8,,,,,,,
291.94,-0.00043,-105.5,,,,,,,
291.97,-0.00046,-109.0,,,,,,,
291.99,-0.00048,-112.6,,,,,,,
292.02,-0.00051,-115.9,,,,,,,
292.04,-0.00054,-119.2,,,,,,,
292.07,-0.00056,-122.5,,,,,,,
292.1,-0.00059,-126.5,,,,,,,
292.12,-0.00061,-130.3,,,,,,,
292.14,-0.00064,-134.0,,,,,,,
292.16,-0.00066,-137.7,,,,,,,
292.18,-0.00069,-141.1,,,,,,,
292.2,-0.00071,-144.3,,,,,,,
292.22,-0.00074,-147.5,,,,,,,
292.24,-0.00076,-150.5,,,,,,,
292.26,-0.00079,-153.5,,,,,,,
292.28,-0.00082,-156.9,,,,,,,
292.31,-0.00084,-160.2,,,,,,,
292.33,-0.00087,-163.5,,,,,,,
292.35,-0.00089,-166.6,,,,,,,
292.38,-0.00092,-169.4,,,,,,,
292.39,-0.00095,-170.1,,,,,,,
292.4,-0.00097,-170.9,,,,,,,
292.4,-0.001,-171.5,,,,,,,
292.41,-0.00103,-171.9,,,,,,,
292.41,-0.00105,-172.3,,,,,,,
292.42,-0.00108,-172.5,,,,,,,
292.43,-0.0011,-172.3,,,,,,,
292.44,-0.00113,-170.4,,,,,,,
292.48,-0.0011,-161.8,,,,,,,
292.5,-0.00108,-159.0,,,,,,,
292.52,-0.00105,-158.1,,,,,,,
292.58,-0.00108,-168.3,,,,,,,
292.59,-0.0011,-172.7,,,,,,,
292.61,-0.00113,-176.2,,,,,,,
292.62,-0.00116,-179.6,,,,,,,
292.63,-0.00118,-179.6,,,,,,,
292.64,-0.00121,-181.0,,,,,,,
292.65,-0.00123,-182.0,,,,,,,
292.66,-0.00126,-183.0,,,,,,,
292.67,-0.00129,-183.7,,,,,,,
292.69,-0.00131,-183.7,,,,,,,
292.82,-0.00134,-189.0,,,,,,,
292.84,-0.00136,-191.5,,,,,,,
292.85,-0.00139,-189.9,,,,,,,
292.85,-0.00143,-190.6,,,,,,,
292.85,-0.00145,-191.0,,,,,,,
292.86,-0.00148,-191.3,,,,,,,
292.86,-0.00151,-191.8,,,,,,,
292.86,-0.00155,-192.1,,,,,,,
292.86,-0.00158,-192.4,,,,,,,
292.86,-0.00161,-192.7,,,,,,,
292.87,-0.00165,-192.8,,,,,,,
292.87,-0.00167,-192.9,,,,,,,
292.87,-0.0017,-192.9,,,,,,,
292.87,-0.00173,-192.5,,,,,,,
292.88,-0.00176,-191.9,,,,,,,
292.88,-0.00179,-191.1,,,,,,,
292.88,-0.00182,-189.8,,,,,,,
292.89,-0.00185,-187.2,,,,,,,
292.9,-0.00187,-181.4,,,,,,,
292.92,-0.00184,-157.6,,,,,,,
292.92,-0.00182,-150.8,,,,,,,
292.93,-0.00179,-143.8,,,,,,,
292.93,-0.00176,-138.0,,,,,,,
292.93,-0.00173,-132.3,,,,,,,
292.94,-0.0017,-126.7,,,,,,,
292.94,-0.00167,-122.6,,,,,,,
292.94,-0.00164,-118.7,,,,,,,
292.95,-0.00162,-114.8,,,,,,,
292.95,-0.00159,-111.2,,,,,,,
292.95,-0.00156,-107.7,,,,,,,
292.96,-0.00153,-104.4,,,,,,,
292.96,-0.00151,-101.3,,,,,,,
292.96,-0.00148,-98.53,,,,,,,
292.96,-0.00145,-95.84,,,,,,,
292.97,-0.00143,-93.43,,,,,,,
292.97,-0.0014,-91.28,,,,,,,
292.97,-0.00137,-88.81,,,,,,,
292.98,-0.00134,-86.79,,,,,,,
292.98,-0.00131,-85.1,,,,,,,
292.99,-0.00129,-83.84,,,,,,,
292.99,-0.00126,-82.92,,,,,,,
293.0,-0.00123,-82.46,,,,,,,
293.0,-0.0012,-82.9,,,,,,,
293.05,-0.00123,-100.7,,,,,,,
293.06,-0.00126,-104.2,,,,,,,
293.07,-0.00128,-107.1,,,,,,,
293.08,-0.00131,-109.3,,,,,,,
293.09,-0.00133,-110.6,,,,,,,
293.11,-0.00136,-110.1,,,,,,,
293.15,-0.00133,-97.25,,,,,,,
293.16,-0.00131,-92.43,,,,,,,
293.17,-0.00128,-88.59,,,,,,,
293.18,-0.00126,-84.92,,,,,,,
293.19,-0.00123,-81.69,,,,,,,
293.2,-0.0012,-78.97,,,,,,,
293.21,-0.00118,-76.27,,,,,,,
293.23,-0.00115,-73.88,,,,,,,
293.24,-0.00113,-71.9,,,,,,,
293.28,-0.0011,-70.09,,,,,,,
293.34,-0.00107,-65.35,,,,,,,
293.37,-0.00105,-60.46,,,,,,,
293.4,-0.00102,-56.4,,,,,,,
293.42,-0.001,-52.46,,,,,,,
293.44,-0.00097,-48.75,,,,,,,
293.47,-0.00095,-45.4,,,,,,,
293.49,-0.00092,-41.58,,,,,,,
293.52,-0.0009,-38.0,,,,,,,
293.55,-0.00087,-34.4,,,,,,,
293.58,-0.00084,-30.43,,,,,,,
293.6,-0.00082,-26.84,,,,,,,
293.63,-0.00079,-23.36,,,,,,,
293.65,-0.00077,-19.15,,,,,,,
293.68,-0.00074,-15.71,,,,,,,
293.7,-0.00072,-12.2,,,,,,,
293.73,-0.00069,-8.4,,,,,,,
293.76,-0.00067,-4.68,,,,,,,
293.79,-0.00064,-0.76,,,,,,,
293.82,-0.00062,2.96,,,,,,,
293.84,-0.00059,6.48,,,,,,,
293.87,-0.00056,10.31,,,,,,,
293.9,-0.00054,14.07,,,,,,,
293.92,-0.00051,17.67,,,,,,,
293.95,-0.00049,21.86,,,,,,,
293.98,-0.00046,25.57,,,,,,,
294.0,-0.00044,29.0,,,,,,,
294.03,-0.00041,32.51,,,,,,,
294.07,-0.00039,33.48,,,,,,,
294.17,-0.00036,44.65,,,,,,,
294.18,-0.00033,49.93,,,,,,,
294.19,-0.00031,54.16,,,,,,,
294.2,-0.00028,57.69,,,,,,,
294.21,-0.00026,60.9,,,,,,,
294.22,-0.00023,63.87,,,,,,,
294.23,-0.0002,66.37,,,,,,,
294.25,-0.00018,68.43,,,,,,,
294.26,-0.00015,69.92,,,,,,,
294.33,-0.00013,72.0,,,,,,,
588.81,-7e-05,28.51,,,,,,,
588.83,-4e-05,31.45,,,,,,,
588.88,-2e-05,32.93,,,,,,,
588.98,1e-05,44.61,,,,,,,
588.99,4e-05,50.14,,,,,,,
589.0,6e-05,54.53,,,,,,,
589.01,9e-05,58.22,,,,,,,
589.02,0.00012,61.54,,,,,,,
589.03,0.00014,64.33,,,,,,,
589.04,0.00017,66.81,,,,,,,
589.05,0.0002,68.79,,,,,,,
589.07,0.00022,70.32,,,,,,,
589.11,0.00025,71.17,,,,,,,
589.18,0.00027,75.58,,,,,,,
589.21,0.0003,80.1,,,,,,,
589.24,0.00032,84.08,,,,,,,
589.26,0.00035,87.73,,,,,,,
589.29,0.00038,91.05,,,,,,,
589.31,0.0004,94.06,,,,,,,
589.33,0.00043,96.91,,,,,,,
589.36,0.00045,99.76,,,,,,,
589.39,0.00048,102.74,,,,,,,
589.42,0.0005,105.85,,,,,,,
589.45,0.00053,108.84,,,,,,,
589.47,0.00055,111.92,,,,,,,
589.5,0.00058,115.28,,,,,,,
589.53,0.0006,118.5,,,,,,,
589.56,0.00063,121.49,,,,,,,
589.59,0.00065,124.81,,,,,,,
589.61,0.00068,128.19,,,,,,,
589.64,0.0007,131.33,,,,,,,
589.67,0.00073,134.63,,,,,,,
589.69,0.00076,137.86,,,,,,,
589.72,0.00078,141.13,,,,,,,
589.75,0.00081,144.49,,,,,,,
589.77,0.00083,147.8,,,,,,,
589.8,0.00086,151.28,,,,,,,
589.82,0.00088,154.99,,,,,,,
589.84,0.00091,158.28,,,,,,,
589.86,0.00093,161.43,,,,,,,
589.87,0.00094,162.56,,,,,,,
589.88,0.00096,164.89,,,,,,,
589.9,0.00098,167.97,,,,,,,
589.93,0.00101,170.96,,,,,,,
589.95,0.00104,173.98,,,,,,,
589.97,0.00106,176.12,,,,,,,
590.0,0.00109,179.07,,,,,,,
590.02,0.00111,182.12,,,,,,,
590.04,0.00114,184.62,,,,,,,
590.06,0.00117,184.45,,,,,,,
590.06,0.00119,185.2,,,,,,,
590.07,0.00122,185.63,,,,,,,
590.07,0.00125,186.02,,,,,,,
590.07,0.00128,186.33,,,,,,,
590.08,0.0013,186.59,,,,,,,
590.08,0.00133,186.67,,,,,,,
590.09,0.00135,186.4,,,,,,,
590.11,0.00138,183.57,,,,,,,
590.13,0.00135,174.91,,,,,,,
590.15,0.00133,170.89,,,,,,,
590.16,0.0013,168.18,,,,,,,
590.17,0.00127,166.71,,,,,,,
590.25,0.0013,181.29,,,,,,,
590.26,0.00133,185.37,,,,,,,
590.27,0.00135,188.81,,,,,,,
590.28,0.00138,191.9,,,,,,,
590.3,0.00141,194.68,,,,,,,
590.31,0.00143,195.4,,,,,,,
590.32,0.00146,196.85,,,,,,,
590.33,0.00148,197.29,,,,,,,
590.34,0.00151,195.04,,,,,,,
590.4,0.00148,177.85,,,,,,,
590.41,0.00146,173.52,,,,,,,
590.42,0.00143,169.47,,,,,,,
590.44,0.0014,165.76,,,,,,,
590.45,0.00138,162.45,,,,,,,
590.46,0.00135,159.47,,,,,,,
590.47,0.00133,156.65,,,,,,,
590.49,0.0013,154.2,,,,,,,
590.51,0.00127,151.96,,,,,,,
590.57,0.00125,148.08,,,,,,,
590.61,0.00122,142.7,,,,,,,
590.64,0.0012,138.05,,,,,,,
590.66,0.00117,133.93,,,,,,,
590.68,0.00115,129.97,,,,,,,
590.71,0.00112,126.5,,,,,,,
590.73,0.0011,123.07,,,,,,,
590.75,0.00107,119.47,,,,,,,
590.78,0.00105,116.09,,,,,,,
590.81,0.00102,112.37,,,,,,,
590.84,0.00099,108.36,,,,,,,
590.87,0.00097,104.76,,,,,,,
590.89,0.00094,101.07,,,,,,,
590.92,0.00092,97.61,,,,,,,
590.94,0.00089,94.26,,,,,,,
590.97,0.00087,90.57,,,,,,,
591.0,0.00084,86.97,,,,,,,
591.02,0.00082,83.52,,,,,,,
591.05,0.00079,79.92,,,,,,,
591.08,0.00077,76.43,,,,,,,
591.1,0.00074,73.3,,,,,,,
591.13,0.00072,69.69,,,,,,,
591.16,0.00069,66.08,,,,,,,
591.18,0.00067,62.51,,,,,,,
591.21,0.00064,58.58,,,,,,,
591.24,0.00062,54.84,,,,,,,
591.26,0.00059,51.17,,,,,,,
591.29,0.00057,47.4,,,,,,,
591.32,0.00054,43.43,,,,,,,
591.35,0.00051,39.11,,,,,,,
591.37,0.00049,35.29,,,,,,,
591.4,0.00046,31.56,,,,,,,
591.43,0.00044,27.4,,,,,,,
591.45,0.00041,23.91,,,,,,,
591.48,0.00039,20.1,,,,,,,
591.51,0.00036,16.12,,,,,,,
591.53,0.00033,12.42,,,,,,,
591.56,0.00031,8.44,,,,,,,
591.59,0.00028,4.62,,,,,,,
591.61,0.00026,1.19,,,,,,,
591.64,0.00023,-2.35,,,,,,,
591.66,0.00021,-5.79,,,,,,,
591.69,0.00018,-9.11,,,,,,,
591.72,0.00016,-12.75,,,,,,,
591.75,0.00013,-15.08,,,,,,,
591.86,0.0001,-24.22,,,,,,,
591.88,8e-05,-30.45,,,,,,,
591.89,5e-05,-35.49,,,,,,,
591.9,2e-05,-39.37,,,,,,,
591.91,-0.0,-42.93,,,,,,,
591.92,-3e-05,-45.87,,,,,,,
591.93,-6e-05,-48.31,,,,,,,
591.95,-8e-05,-50.35,,,,,,,
591.97,-0.00011,-51.92,,,,,,,
592.0,-0.00013,-52.98,,,,,,,
592.08,-0.00016,-58.81,,,,,,,
592.11,-0.00018,-63.45,,,,,,,
592.14,-0.00021,-67.86,,,,,,,
592.16,-0.00024,-71.64,,,,,,,
592.18,-0.00026,-75.09,,,,,,,
592.21,-0.00029,-78.59,,,,,,,
592.23,-0.00031,-82.05,,,,,,,
592.27,-0.00034,-85.9,,,,,,,
592.3,-0.00036,-89.94,,,,,,,
592.33,-0.00039,-94.06,,,,,,,
592.36,-0.00041,-98.12,,,,,,,
592.38,-0.00044,-102.1,,,,,,,
592.41,-0.00046,-105.8,,,,,,,
592.44,-0.00049,-109.4,,,,,,,
592.47,-0.00051,-113.4,,,,,,,
592.49,-0.00054,-117.1,,,,,,,
592.52,-0.00056,-120.8,,,,,,,
592.55,-0.00059,-124.8,,,,,,,
592.57,-0.00062,-128.5,,,,,,,
592.59,-0.00064,-132.5,,,,,,,
592.62,-0.00067,-136.6,,,,,,,
592.63,-0.00069,-140.2,,,,,,,
592.65,-0.00072,-143.7,,,,,,,
592.67,-0.00074,-147.3,,,,,,,
592.69,-0.00077,-150.6,,,,,,,
592.71,-0.0008,-153.8,,,,,,,
592.73,-0.00082,-157.1,,,,,,,
592.75,-0.00085,-160.3,,,,,,,
592.78,-0.00087,-163.7,,,,,,,
592.8,-0.0009,-166.8,,,,,,,
592.83,-0.00092,-169.8,,,,,,,
592.85,-0.00095,-172.3,,,,,,,
592.87,-0.00097,-174.7,,,,,,,
592.89,-0.001,-176.5,,,,,,,
592.9,-0.00103,-177.8,,,,,,,
592.92,-0.00105,-179.5,,,,,,,
592.94,-0.00108,-181.0,,,,,,,
592.97,-0.0011,-182.3,,,,,,,
593.0,-0.00113,-183.9,,,,,,,
593.04,-0.00115,-186.0,,,,,,,
593.06,-0.00118,-188.6,,,,,,,
593.09,-0.00121,-187.7,,,,,,,
593.09,-0.00124,-188.1,,,,,,,
593.1,-0.00127,-188.5,,,,,,,
593.1,-0.00129,-188.7,,,,,,,
593.1,-0.00133,-189.1,,,,,,,
593.11,-0.00135,-189.4,,,,,,,
593.11,-0.00138,-189.5,,,,,,,
593.12,-0.00141,-189.2,,,,,,,
593.13,-0.00143,-187.8,,,,,,,
593.17,-0.00141,-173.9,,,,,,,
593.18,-0.00138,-170.0,,,,,,,
593.19,-0.00135,-166.6,,,,,,,
593.2,-0.00133,-164.1,,,,,,,
593.21,-0.0013,-162.8,,,,,,,
593.28,-0.00133,-176.5,,,,,,,
593.29,-0.00136,-180.6,,,,,,,
593.3,-0.00138,-184.2,,,,,,,
593.31,-0.00141,-187.3,,,,,,,
593.32,-0.00143,-190.2,,,,,,,
593.33,-0.00146,-192.4,,,,,,,
593.35,-0.00149,-193.2,,,,,,,
593.42,-0.00146,-178.2,,,,,,,
593.43,-0.00143,-173.8,,,,,,,
593.44,-0.00141,-169.9,,,,,,,
593.45,-0.00138,-166.6,,,,,,,
593.46,-0.00136,-163.6,,,,,,,
593.48,-0.00133,-160.6,,,,,,,
593.49,-0.0013,-157.9,,,,,,,
593.51,-0.00128,-155.7,,,,,,,
593.55,-0.00125,-153.0,,,,,,,
593.6,-0.00123,-147.9,,,,,,,
593.64,-0.0012,-143.0,,,,,,,
593.66,-0.00118,-138.8,,,,,,,
593.68,-0.00115,-135.2,,,,,,,
593.7,-0.00113,-131.7,,,,,,,
593.72,-0.0011,-128.4,,,,,,,
593.75,-0.00108,-125.0,,,,,,,
593.78,-0.00105,-121.5,,,,,,,
593.81,-0.00102,-117.7,,,,,,,
593.84,-0.001,-113.7,,,,,,,
593.87,-0.00097,-109.9,,,,,,,
593.89,-0.00095,-106.1,,,,,,,
593.92,-0.00092,-102.2,,,,,,,
593.94,-0.0009,-98.75,,,,,,,
593.97,-0.00087,-94.97,,,,,,,
594.0,-0.00085,-91.28,,,,,,,
594.02,-0.00082,-87.63,,,,,,,
594.05,-0.0008,-83.66,,,,,,,
594.08,-0.00077,-79.72,,,,,,,
594.11,-0.00074,-76.09,,,,,,,
594.13,-0.00072,-72.22,,,,,,,
594.16,-0.00069,-68.36,,,,,,,
594.18,-0.00067,-64.76,,,,,,,
594.21,-0.00064,-61.21,,,,,,,
594.24,-0.00062,-57.63,,,,,,,
594.27,-0.00059,-53.66,,,,,,,
594.29,-0.00057,-49.62,,,,,,,
594.32,-0.00054,-45.86,,,,,,,
594.35,-0.00051,-41.97,,,,,,,
594.37,-0.00049,-38.0,,,,,,,
594.4,-0.00046,-34.12,,,,,,,
594.43,-0.00044,-30.36,,,,,,,
594.45,-0.00041,-26.82,,,,,,,
594.48,-0.00039,-22.98,,,,,,,
594.5,-0.00036,-19.44,,,,,,,
594.53,-0.00034,-15.83,,,,,,,
594.56,-0.00031,-11.81,,,,,,,
594.59,-0.00028,-8.11,,,,,,,
594.61,-0.00026,-4.55,,,,,,,
594.64,-0.00023,-0.82,,,,,,,
594.67,-0.00021,2.61,,,,,,,
594.69,-0.00018,6.38,,,,,,,
594.72,-0.00016,10.13,,,,,,,
594.75,-0.00013,13.74,,,,,,,
594.77,-0.00011,17.31,,,,,,,
594.8,-8e-05,20.92,,,,,,,
1189.68,-0.00015,48.01,,,,,,,
1189.7,-0.00013,53.03,,,,,,,
1189.71,-0.0001,56.91,,,,,,,
1189.72,-7e-05,60.55,,,,,,,
1189.73,-5e-05,63.62,,,,,,,
1189.74,-2e-05,66.37,,,,,,,
1189.75,1e-05,68.63,,,,,,,
1189.76,3e-05,70.43,,,,,,,
1189.79,6e-05,71.86,,,,,,,
1189.87,8e-05,75.56,,,,,,,
1189.87,8e-05,75.94,,,,,,,
1189.9,0.00011,80.56,,,,,,,
1189.93,0.00013,84.84,,,,,,,
1189.95,0.00016,88.41,,,,,,,
1189.97,0.00018,92.01,,,,,,,
1190.0,0.00021,95.2,,,,,,,
1190.02,0.00023,98.67,,,,,,,
1190.05,0.00026,102.35,,,,,,,
1190.08,0.00028,105.84,,,,,,,
1190.12,0.00031,109.78,,,,,,,
1190.14,0.00034,113.35,,,,,,,
1190.17,0.00036,116.7,,,,,,,
1190.2,0.00039,120.26,,,,,,,
1190.22,0.00041,123.8,,,,,,,
1190.25,0.00044,127.2,,,,,,,
1190.28,0.00046,130.47,,,,,,,
1190.3,0.00049,133.55,,,,,,,
1190.33,0.00051,136.93,,,,,,,
1190.36,0.00054,140.36,,,,,,,
1190.39,0.00057,143.8,,,,,,,
1190.41,0.00059,147.25,,,,,,,
1190.44,0.00062,150.36,,,,,,,
1190.46,0.00064,153.46,,,,,,,
1190.49,0.00067,157.12,,,,,,,
1190.51,0.00069,160.18,,,,,,,
1190.53,0.00072,163.35,,,,,,,
1190.55,0.00074,166.39,,,,,,,
1190.57,0.00077,169.22,,,,,,,
1190.59,0.0008,172.06,,,,,,,
1190.61,0.00082,174.52,,,,,,,
1190.63,0.00085,175.72,,,,,,,
1190.64,0.00087,176.73,,,,,,,
1190.65,0.0009,177.58,,,,,,,
1190.66,0.00093,178.19,,,,,,,
1190.66,0.00095,178.75,,,,,,,
1190.67,0.00098,178.98,,,,,,,
1190.8,0.001,178.68,,,,,,,
1190.83,0.00103,182.92,,,,,,,
1190.84,0.00106,186.74,,,,,,,
1190.86,0.00108,189.96,,,,,,,
1190.88,0.00111,189.8,,,,,,,
1190.88,0.00114,190.53,,,,,,,
1190.89,0.00117,191.07,,,,,,,
1190.89,0.00119,191.51,,,,,,,
1190.89,0.00122,191.8,,,,,,,
1190.9,0.00125,191.91,,,,,,,
1190.9,0.00128,191.35,,,,,,,
1190.9,0.00131,190.96,,,,,,,
1190.91,0.00134,190.83,,,,,,,
1190.91,0.00137,190.4,,,,,,,
1190.92,0.0014,189.61,,,,,,,
1190.92,0.00142,188.08,,,,,,,
1190.96,0.0014,166.55,,,,,,,
1190.97,0.00137,162.2,,,,,,,
1190.97,0.00134,158.29,,,,,,,
1190.98,0.00131,154.69,,,,,,,
1190.99,0.00129,151.66,,,,,,,
1191.0,0.00126,149.3,,,,,,,
1191.0,0.00123,147.39,,,,,,,
1191.01,0.0012,146.31,,,,,,,
1191.02,0.00118,146.67,,,,,,,
1191.07,0.00121,161.8,,,,,,,
1191.08,0.00123,166.51,,,,,,,
1191.09,0.00126,170.59,,,,,,,
1191.1,0.00129,174.4,,,,,,,
1191.1,0.00131,177.6,,,,,,,
1191.11,0.00134,180.6,,,,,,,
1191.12,0.00137,183.18,,,,,,,
1191.13,0.00139,185.55,,,,,,,
1191.14,0.00142,187.55,,,,,,,
1191.16,0.00144,188.99,,,,,,,
1191.18,0.00147,189.7,,,,,,,
1191.29,0.00144,177.49,,,,,,,
1191.31,0.00142,172.8,,,,,,,
1191.32,0.00139,168.7,,,,,,,
1191.34,0.00137,164.99,,,,,,,
1191.36,0.00134,161.31,,,,,,,
1191.38,0.00131,157.82,,,,,,,
1191.41,0.00129,154.01,,,,,,,
1191.44,0.00126,150.07,,,,,,,
1191.47,0.00124,146.11,,,,,,,
1191.5,0.00121,142.14,,,,,,,
1191.52,0.00119,138.17,,,,,,,
1191.55,0.00116,134.29,,,,,,,
1191.58,0.00114,130.4,,,,,,,
1191.6,0.00111,126.64,,,,,,,
1191.63,0.00109,122.93,,,,,,,
1191.66,0.00106,119.0,,,,,,,
1191.68,0.00103,115.09,,,,,,,
1191.71,0.00101,110.97,,,,,,,
1191.74,0.00098,106.94,,,,,,,
1191.77,0.00096,103.11,,,,,,,
1191.79,0.00093,99.3,,,,,,,
1191.82,0.00091,95.63,,,,,,,
1191.84,0.00088,91.84,,,,,,,
1191.87,0.00086,87.61,,,,,,,
1191.91,0.00083,83.09,,,,,,,
1191.93,0.0008,78.52,,,,,,,
1191.96,0.00078,74.24,,,,,,,
1191.99,0.00075,69.8,,,,,,,
1192.01,0.00073,65.83,,,,,,,
1192.04,0.0007,61.8,,,,,,,
1192.06,0.00068,57.83,,,,,,,
1192.09,0.00065,53.82,,,,,,,
1192.12,0.00063,49.79,,,,,,,
1192.14,0.0006,45.61,,,,,,,
1192.17,0.00058,41.4,,,,,,,
1192.2,0.00055,37.49,,,,,,,
1192.22,0.00052,33.5,,,,,,,
1192.25,0.0005,29.44,,,,,,,
1192.28,0.00047,25.44,,,,,,,
1192.3,0.00045,21.56,,,,,,,
1192.33,0.00042,17.62,,,,,,,
1192.36,0.0004,13.79,,,,,,,
1192.38,0.00037,9.9,,,,,,,
1192.41,0.00035,5.99,,,,,,,
1192.43,0.00032,2.3,,,,,,,
1192.46,0.0003,-1.38,,,,,,,
1192.49,0.00027,-5.09,,,,,,,
1192.51,0.00025,-8.75,,,,,,,
1192.54,0.00022,-12.11,,,,,,,
1192.57,0.00019,-15.11,,,,,,,
1192.67,0.00017,-19.21,,,,,,,
1192.7,0.00014,-26.26,,,,,,,
1192.71,0.00012,-31.62,,,,,,,
1192.72,9e-05,-35.8,,,,,,,
1192.73,7e-05,-39.57,,,,,,,
1192.74,4e-05,-42.6,,,,,,,
1192.75,1e-05,-45.39,,,,,,,
1192.76,-1e-05,-47.69,,,,,,,
1192.78,-4e-05,-49.71,,,,,,,
1192.8,-6e-05,-51.08,,,,,,,
1192.88,-9e-05,-55.36,,,,,,,
1192.92,-0.00011,-60.62,,,,,,,
1192.94,-0.00014,-64.45,,,,,,,
1192.97,-0.00017,-68.41,,,,,,,
1192.99,-0.00019,-71.73,,,,,,,
1193.01,-0.00022,-74.82,,,,,,,
1193.04,-0.00024,-78.13,,,,,,,
1193.07,-0.00027,-81.22,,,,,,,
1193.09,-0.00029,-84.22,,,,,,,
1193.13,-0.00032,-88.11,,,,,,,
1193.16,-0.00034,-91.75,,,,,,,
1193.19,-0.00037,-95.27,,,,,,,
1193.21,-0.00039,-98.8,,,,,,,
1193.24,-0.00042,-102.4,,,,,,,
1193.27,-0.00045,-106.3,,,,,,,
1193.3,-0.00047,-110.0,,,,,,,
1193.33,-0.0005,-113.6,,,,,,,
1193.35,-0.00052,-117.0,,,,,,,
1193.37,-0.00055,-120.2,,,,,,,
1193.4,-0.00057,-123.2,,,,,,,
1193.42,-0.0006,-126.8,,,,,,,
1193.44,-0.00062,-130.4,,,,,,,
1193.46,-0.00065,-133.8,,,,,,,
1193.49,-0.00067,-137.3,,,,,,,
1193.5,-0.0007,-140.7,,,,,,,
1193.52,-0.00073,-143.7,,,,,,,
1193.54,-0.00075,-146.6,,,,,,,
1193.56,-0.00078,-149.7,,,,,,,
1193.59,-0.0008,-153.1,,,,,,,
1193.61,-0.00083,-156.4,,,,,,,
1193.63,-0.00085,-159.5,,,,,,,
1193.66,-0.00088,-162.5,,,,,,,
1193.68,-0.0009,-165.5,,,,,,,
1193.7,-0.00093,-168.2,,,,,,,
1193.73,-0.00096,-171.3,,,,,,,
1193.75,-0.00098,-174.2,,,,,,,
1193.78,-0.00101,-177.1,,,,,,,
1193.8,-0.00103,-179.8,,,,,,,
1193.82,-0.00106,-182.1,,,,,,,
1193.84,-0.00108,-182.8,,,,,,,
1193.85,-0.00111,-183.7,,,,,,,
1193.86,-0.00114,-184.3,,,,,,,
1193.87,-0.00116,-184.6,,,,,,,
1193.88,-0.00119,-183.9,,,,,,,
1193.89,-0.00122,-183.7,,,,,,,
1193.9,-0.00124,-183.5,,,,,,,
1193.9,-0.00127,-183.0,,,,,,,
1193.92,-0.00129,-181.5,,,,,,,
1193.96,-0.00127,-170.4,,,,,,,
1193.98,-0.00124,-167.1,,,,,,,
1194.0,-0.00122,-165.8,,,,,,,
1194.06,-0.00124,-176.2,,,,,,,
1194.07,-0.00127,-180.3,,,,,,,
1194.08,-0.0013,-183.7,,,,,,,
1194.1,-0.00132,-186.6,,,,,,,
1194.11,-0.00135,-189.3,,,,,,,
1194.13,-0.00137,-191.8,,,,,,,
1194.15,-0.0014,-194.0,,,,,,,
1194.17,-0.00142,-195.9,,,,,,,
1194.22,-0.00145,-198.1,,,,,,,
1194.25,-0.00148,-195.9,,,,,,,
1194.3,-0.00145,-183.2,,,,,,,
1194.32,-0.00142,-178.5,,,,,,,
1194.33,-0.0014,-174.3,,,,,,,
1194.34,-0.00137,-170.8,,,,,,,
1194.36,-0.00135,-167.2,,,,,,,
1194.37,-0.00132,-163.9,,,,,,,
1194.39,-0.00129,-160.9,,,,,,,
1194.41,-0.00127,-157.8,,,,,,,
1194.45,-0.00124,-154.0,,,,,,,
1194.49,-0.00122,-148.9,,,,,,,
1194.52,-0.00119,-143.8,,,,,,,
1194.55,-0.00117,-139.3,,,,,,,
1194.57,-0.00114,-135.2,,,,,,,
1194.6,-0.00112,-131.2,,,,,,,
1194.62,-0.00109,-127.6,,,,,,,
1194.65,-0.00106,-123.9,,,,,,,
1194.67,-0.00104,-120.1,,,,,,,
1194.7,-0.00101,-116.1,,,,,,,
1194.73,-0.00099,-112.4,,,,,,,
1194.75,-0.00096,-108.9,,,,,,,
1194.78,-0.00094,-105.3,,,,,,,
1194.81,-0.00091,-101.7,,,,,,,
1194.83,-0.00089,-98.15,,,,,,,
1194.86,-0.00086,-94.35,,,,,,,
1194.89,-0.00083,-90.54,,,,,,,
1194.92,-0.00081,-86.86,,,,,,,
1194.94,-0.00078,-82.9,,,,,,,
1194.97,-0.00076,-79.32,,,,,,,
1194.99,-0.00073,-75.69,,,,,,,
1195.02,-0.00071,-72.0,,,,,,,
1195.04,-0.00068,-68.6,,,,,,,
1195.07,-0.00065,-65.05,,,,,,,
1195.1,-0.00063,-61.38,,,,,,,
1195.13,-0.0006,-57.93,,,,,,,
1195.16,-0.00058,-54.13,,,,,,,
1195.18,-0.00055,-50.08,,,,,,,
1195.21,-0.00053,-45.79,,,,,,,
1195.24,-0.0005,-41.91,,,,,,,
1195.26,-0.00048,-38.08,,,,,,,
1195.29,-0.00045,-34.08,,,,,,,
1195.31,-0.00043,-30.7,,,,,,,
1195.34,-0.0004,-27.07,,,,,,,
1195.37,-0.00037,-22.75,,,,,,,
1195.4,-0.00035,-18.74,,,,,,,
1195.43,-0.00032,-14.49,,,,,,,
1195.46,-0.0003,-10.66,,,,,,,
1195.48,-0.00027,-6.77,,,,,,,
1195.51,-0.00025,-2.73,,,,,,,
1195.54,-0.00022,1.29,,,,,,,
1195.56,-0.0002,5.44,,,,,,,
1195.59,-0.00017,9.47,,,,,,,
1195.62,-0.00014,13.39,,,,,,,
1195.64,-0.00012,16.88,,,,,,,
1195.67,-9e-05,20.79,,,,,,,
2992.34,-6e-05,31.46,,,,,,,
2992.38,-3e-05,34.28,,,,,,,
2992.49,-0.0,45.84,,,,,,,
2992.5,2e-05,51.44,,,,,,,
2992.51,5e-05,55.57,,,,,,,
2992.52,7e-05,59.43,,,,,,,
2992.53,0.0001,62.96,,,,,,,
2992.54,0.00013,65.88,,,,,,,
2992.55,0.00015,68.51,,,,,,,
2992.56,0.00018,70.79,,,,,,,
2992.58,0.00021,72.48,,,,,,,
2992.61,0.00023,73.69,,,,,,,
2992.69,0.00026,78.92,,,,,,,
2992.72,0.00028,83.62,,,,,,,
2992.74,0.00031,87.5,,,,,,,
2992.77,0.00033,91.11,,,,,,,
2992.79,0.00036,94.32,,,,,,,
2992.81,0.00038,97.53,,,,,,,
2992.84,0.00041,100.48,,,,,,,
2992.87,0.00044,103.55,,,,,,,
2992.9,0.00046,106.86,,,,,,,
2992.93,0.00049,110.07,,,,,,,
2992.96,0.00051,113.58,,,,,,,
2992.98,0.00054,116.91,,,,,,,
2993.01,0.00056,119.98,,,,,,,
2993.04,0.00059,123.32,,,,,,,
2993.06,0.00061,126.36,,,,,,,
2993.09,0.00064,129.51,,,,,,,
2993.12,0.00066,132.64,,,,,,,
2993.14,0.00069,135.77,,,,,,,
2993.17,0.00071,138.99,,,,,,,
2993.2,0.00074,142.14,,,,,,,
2993.23,0.00077,145.4,,,,,,,
2993.25,0.00079,148.71,,,,,,,
2993.28,0.00082,152.22,,,,,,,
2993.3,0.00084,155.68,,,,,,,
2993.32,0.00087,159.17,,,,,,,
2993.34,0.00089,162.38,,,,,,,
2993.36,0.00092,165.65,,,,,,,
2993.38,0.00094,168.47,,,,,,,
2993.4,0.00097,170.86,,,,,,,
2993.42,0.001,173.17,,,,,,,
2993.45,0.00102,175.78,,,,,,,
2993.46,0.00105,177.81,,,,,,,
2993.48,0.00107,179.77,,,,,,,
2993.51,0.0011,181.92,,,,,,,
2993.53,0.00112,184.2,,,,,,,
2993.56,0.00115,186.59,,,,,,,
2993.59,0.00117,189.1,,,,,,,
2993.61,0.0012,190.56,,,,,,,
2993.62,0.00123,190.52,,,,,,,
2993.63,0.00126,191.05,,,,,,,
2993.63,0.00128,191.51,,,,,,,
2993.64,0.00131,191.82,,,,,,,
2993.64,0.00134,192.03,,,,,,,
2993.65,0.00137,192.05,,,,,,,
2993.65,0.00139,191.69,,,,,,,
2993.71,0.00137,177.61,,,,,,,
2993.73,0.00134,175.04,,,,,,,
2993.75,0.00131,174.31,,,,,,,
2993.8,0.00134,184.07,,,,,,,
2993.82,0.00137,188.36,,,,,,,
2993.83,0.00139,191.82,,,,,,,
2993.84,0.00142,194.8,,,,,,,
2993.85,0.00145,196.97,,,,,,,
2993.87,0.00147,197.98,,,,,,,
2993.94,0.00145,181.65,,,,,,,
2993.96,0.00142,177.36,,,,,,,
2993.97,0.00139,173.28,,,,,,,
2993.98,0.00137,169.74,,,,,,,
2994.0,0.00134,166.43,,,,,,,
2994.01,0.00131,163.3,,,,,,,
2994.03,0.00129,160.55,,,,,,,
2994.06,0.00126,157.85,,,,,,,
2994.1,0.00124,153.75,,,,,,,
2994.14,0.00121,148.82,,,,,,,
2994.17,0.00119,144.16,,,,,,,
2994.19,0.00116,139.88,,,,,,,
2994.22,0.00113,135.94,,,,,,,
2994.24,0.00111,132.18,,,,,,,
2994.27,0.00108,128.36,,,,,,,
2994.29,0.00106,124.58,,,,,,,
2994.32,0.00103,120.8,,,,,,,
2994.35,0.00101,117.01,,,,,,,
2994.37,0.00098,113.03,,,,,,,
2994.4,0.00096,109.26,,,,,,,
2994.43,0.00093,105.34,,,,,,,
2994.46,0.0009,101.32,,,,,,,
2994.48,0.00088,97.52,,,,,,,
2994.51,0.00085,93.55,,,,,,,
2994.54,0.00083,89.69,,,,,,,
2994.56,0.0008,85.88,,,,,,,
2994.59,0.00078,82.11,,,,,,,
2994.62,0.00075,78.2,,,,,,,
2994.64,0.00073,74.64,,,,,,,
2994.67,0.0007,71.22,,,,,,,
2994.69,0.00068,67.53,,,,,,,
2994.72,0.00065,64.3,,,,,,,
2994.74,0.00063,60.9,,,,,,,
2994.77,0.0006,57.22,,,,,,,
2994.8,0.00057,53.76,,,,,,,
2994.82,0.00055,50.22,,,,,,,
2994.85,0.00052,46.68,,,,,,,
2994.88,0.0005,43.37,,,,,,,
2994.9,0.00047,39.78,,,,,,,
2994.93,0.00045,36.21,,,,,,,
2994.96,0.00042,32.6,,,,,,,
2994.99,0.0004,28.73,,,,,,,
2995.01,0.00037,24.98,,,,,,,
2995.04,0.00035,21.25,,,,,,,
2995.06,0.00032,17.6,,,,,,,
2995.09,0.0003,13.73,,,,,,,
2995.12,0.00027,9.96,,,,,,,
2995.15,0.00024,6.39,,,,,,,
2995.17,0.00022,2.84,,,,,,,
2995.2,0.00019,-0.38,,,,,,,
2995.23,0.00017,-4.37,,,,,,,
2995.26,0.00014,-8.27,,,,,,,
2995.28,0.00012,-12.02,,,,,,,
2995.31,9e-05,-15.16,,,,,,,
2995.35,7e-05,-15.26,,,,,,,
2995.44,4e-05,-25.12,,,,,,,
2995.45,2e-05,-30.65,,,,,,,
2995.46,-1e-05,-35.06,,,,,,,
2995.47,-4e-05,-38.76,,,,,,,
2995.48,-6e-05,-41.94,,,,,,,
2995.5,-9e-05,-44.71,,,,,,,
2995.51,-0.00011,-47.15,,,,,,,
2995.52,-0.00014,-49.16,,,,,,,
2995.55,-0.00017,-50.6,,,,,,,
2995.61,-0.00019,-53.21,,,,,,,
2995.66,-0.00022,-58.66,,,,,,,
2995.68,-0.00024,-62.79,,,,,,,
2995.71,-0.00027,-66.65,,,,,,,
2995.73,-0.00029,-69.82,,,,,,,
2995.75,-0.00032,-72.93,,,,,,,
2995.78,-0.00035,-76.16,,,,,,,
2995.81,-0.00037,-79.3,,,,,,,
2995.84,-0.0004,-82.68,,,,,,,
2995.87,-0.00042,-86.45,,,,,,,
2995.9,-0.00045,-89.96,,,,,,,
2995.93,-0.00047,-93.53,,,,,,,
2995.96,-0.0005,-96.93,,,,,,,
2995.98,-0.00052,-100.1,,,,,,,
2996.01,-0.00055,-103.6,,,,,,,
2996.04,-0.00057,-107.1,,,,,,,
2996.06,-0.0006,-110.4,,,,,,,
2996.09,-0.00062,-114.0,,,,,,,
2996.12,-0.00065,-117.7,,,,,,,
2996.15,-0.00067,-121.3,,,,,,,
2996.17,-0.0007,-125.1,,,,,,,
2996.19,-0.00073,-129.1,,,,,,,
2996.21,-0.00075,-133.1,,,,,,,
2996.23,-0.00078,-136.5,,,,,,,
2996.25,-0.0008,-140.0,,,,,,,
2996.27,-0.00083,-143.2,,,,,,,
2996.29,-0.00085,-146.2,,,,,,,
2996.31,-0.00088,-149.5,,,,,,,
2996.33,-0.0009,-152.8,,,,,,,
2996.35,-0.00093,-155.9,,,,,,,
2996.38,-0.00095,-159.2,,,,,,,
2996.41,-0.00098,-163.0,,,,,,,
2996.43,-0.00101,-166.5,,,,,,,
2996.45,-0.00103,-169.9,,,,,,,
2996.47,-0.00106,-173.2,,,,,,,
2996.5,-0.00108,-176.4,,,,,,,
2996.52,-0.00111,-179.3,,,,,,,
2996.54,-0.00113,-182.3,,,,,,,
2996.57,-0.00116,-185.1,,,,,,,
2996.59,-0.00118,-187.4,,,,,,,
2996.61,-0.00121,-189.6,,,,,,,
2996.63,-0.00123,-190.5,,,,,,,
2996.64,-0.00126,-191.0,,,,,,,
2996.65,-0.00129,-191.5,,,,,,,
2996.65,-0.00132,-191.9,,,,,,,
2996.66,-0.00135,-192.2,,,,,,,
2996.66,-0.00137,-192.2,,,,,,,
2996.67,-0.0014,-192.0,,,,,,,
2996.74,-0.00137,-178.1,,,,,,,
2996.75,-0.00135,-176.2,,,,,,,
2996.82,-0.00137,-187.1,,,,,,,
2996.84,-0.0014,-190.9,,,,,,,
2996.85,-0.00142,-193.8,,,,,,,
2996.86,-0.00145,-195.7,,,,,,,
2996.88,-0.00147,-196.3,,,,,,,
2996.95,-0.00145,-179.3,,,,,,,
2996.96,-0.00142,-174.7,,,,,,,
2996.97,-0.0014,-170.7,,,,,,,
2996.99,-0.00137,-167.1,,,,,,,
2997.0,-0.00134,-163.6,,,,,,,
2997.01,-0.00132,-160.6,,,,,,,
2997.03,-0.00129,-157.8,,,,,,,
2997.05,-0.00127,-154.9,,,,,,,
2997.09,-0.00124,-151.4,,,,,,,
2997.13,-0.00122,-146.3,,,,,,,
2997.16,-0.00119,-141.8,,,,,,,
2997.19,-0.00117,-137.2,,,,,,,
2997.21,-0.00114,-133.2,,,,,,,
2997.24,-0.00111,-129.4,,,,,,,
2997.26,-0.00109,-125.7,,,,,,,
2997.29,-0.00106,-122.2,,,,,,,
2997.31,-0.00104,-118.5,,,,,,,
2997.34,-0.00101,-114.6,,,,,,,
2997.37,-0.00099,-110.8,,,,,,,
2997.4,-0.00096,-106.8,,,,,,,
2997.42,-0.00094,-102.7,,,,,,,
2997.45,-0.00091,-98.67,,,,,,,
2997.48,-0.00089,-94.95,,,,,,,
2997.5,-0.00086,-90.94,,,,,,,
2997.53,-0.00084,-86.92,,,,,,,
2997.56,-0.00081,-82.97,,,,,,,
2997.58,-0.00078,-79.32,,,,,,,
2997.61,-0.00076,-75.88,,,,,,,
2997.63,-0.00073,-72.02,,,,,,,
2997.66,-0.00071,-68.18,,,,,,,
2997.69,-0.00068,-64.17,,,,,,,
2997.72,-0.00066,-60.02,,,,,,,
2997.75,-0.00063,-56.01,,,,,,,
2997.77,-0.00061,-52.13,,,,,,,
2997.79,-0.00058,-48.58,,,,,,,
2997.82,-0.00056,-44.97,,,,,,,
2997.85,-0.00053,-41.31,,,,,,,
2997.87,-0.00051,-37.69,,,,,,,
2997.9,-0.00048,-33.73,,,,,,,
2997.93,-0.00045,-29.4,,,,,,,
2997.96,-0.00043,-25.51,,,,,,,
2997.98,-0.0004,-21.72,,,,,,,
2998.01,-0.00038,-18.28,,,,,,,
2998.03,-0.00035,-15.02,,,,,,,
2998.05,-0.00033,-11.76,,,,,,,
2998.08,-0.0003,-8.02,,,,,,,
2998.11,-0.00028,-4.42,,,,,,,
2998.14,-0.00025,-0.09,,,,,,,
2998.17,-0.00023,4.0,,,,,,,
2998.2,-0.0002,8.28,,,,,,,
2998.22,-0.00017,11.8,,,,,,,
2998.25,-0.00015,15.43,,,,,,,
2998.27,-0.00012,19.07,,,,,,,
2998.3,-0.0001,22.69,,,,,,,
5996.73,-4e-05,71.63,,,,,,,
5996.82,-1e-05,76.36,,,,,,,
5996.85,1e-05,80.89,,,,,,,
5996.87,4e-05,84.54,,,,,,,
5996.89,6e-05,87.71,,,,,,,
5996.91,9e-05,91.0,,,,,,,
5996.94,0.00011,94.25,,,,,,,
5996.97,0.00014,97.62,,,,,,,
5997.0,0.00016,101.39,,,,,,,
5997.03,0.00019,105.05,,,,,,,
5997.06,0.00022,108.45,,,,,,,
5997.08,0.00024,111.71,,,,,,,
5997.11,0.00027,115.24,,,,,,,
5997.14,0.00029,118.22,,,,,,,
5997.16,0.00032,121.36,,,,,,,
5997.19,0.00034,124.5,,,,,,,
5997.22,0.00037,127.53,,,,,,,
5997.25,0.0004,130.74,,,,,,,
5997.28,0.00042,133.97,,,,,,,
5997.3,0.00045,137.3,,,,,,,
5997.33,0.00047,140.7,,,,,,,
5997.36,0.0005,144.21,,,,,,,
5997.39,0.00052,147.49,,,,,,,
5997.41,0.00055,151.07,,,,,,,
5997.44,0.00057,154.96,,,,,,,
5997.46,0.0006,158.15,,,,,,,
5997.47,0.00062,161.4,,,,,,,
5997.49,0.00065,164.58,,,,,,,
5997.51,0.00068,167.7,,,,,,,
5997.54,0.0007,170.72,,,,,,,
5997.56,0.00073,173.57,,,,,,,
5997.58,0.00075,176.46,,,,,,,
5997.6,0.00078,179.15,,,,,,,
5997.62,0.0008,181.77,,,,,,,
5997.64,0.00083,181.65,,,,,,,
5997.65,0.00086,182.31,,,,,,,
5997.65,0.00088,182.78,,,,,,,
5997.65,0.00092,183.19,,,,,,,
5997.66,0.00095,183.54,,,,,,,
5997.66,0.00097,183.77,,,,,,,
5997.67,0.001,183.85,,,,,,,
5997.67,0.00103,183.59,,,,,,,
5997.69,0.00105,181.52,,,,,,,
5997.72,0.00103,169.75,,,,,,,
5997.73,0.001,165.66,,,,,,,
5997.75,0.00097,162.75,,,,,,,
5997.76,0.00095,160.87,,,,,,,
5997.79,0.00092,161.59,,,,,,,
5997.82,0.00095,170.34,,,,,,,
5997.83,0.00097,174.68,,,,,,,
5997.85,0.001,178.37,,,,,,,
5997.86,0.00103,181.51,,,,,,,
5997.87,0.00105,184.18,,,,,,,
5997.88,0.00108,186.81,,,,,,,
5997.89,0.0011,189.17,,,,,,,
5997.91,0.00113,191.11,,,,,,,
5997.93,0.00115,192.61,,,,,,,
5997.95,0.00118,193.37,,,,,,,
5997.98,0.00121,194.08,,,,,,,
5998.02,0.00123,195.18,,,,,,,
5998.07,0.00126,198.42,,,,,,,
5998.1,0.00128,199.31,,,,,,,
5998.11,0.00131,200.59,,,,,,,
5998.12,0.00134,201.55,,,,,,,
5998.12,0.00136,200.63,,,,,,,
5998.13,0.00139,201.22,,,,,,,
5998.13,0.00142,201.46,,,,,,,
5998.14,0.00145,201.64,,,,,,,
5998.14,0.00148,201.73,,,,,,,
5998.15,0.0015,201.68,,,,,,,
5998.15,0.00153,201.43,,,,,,,
5998.16,0.00156,200.64,,,,,,,
5998.21,0.00153,181.94,,,,,,,
5998.21,0.00151,178.33,,,,,,,
5998.22,0.00148,175.29,,,,,,,
5998.23,0.00145,172.71,,,,,,,
5998.24,0.00143,170.86,,,,,,,
5998.26,0.0014,169.74,,,,,,,
5998.4,0.00138,161.65,,,,,,,
5998.42,0.00135,157.01,,,,,,,
5998.43,0.00132,153.01,,,,,,,
5998.45,0.0013,149.41,,,,,,,
5998.47,0.00127,146.03,,,,,,,
5998.49,0.00125,142.59,,,,,,,
5998.52,0.00122,139.2,,,,,,,
5998.55,0.0012,135.61,,,,,,,
5998.58,0.00117,131.51,,,,,,,
5998.61,0.00114,127.1,,,,,,,
5998.64,0.00112,122.93,,,,,,,
5998.67,0.00109,118.61,,,,,,,
5998.69,0.00107,114.66,,,,,,,
5998.72,0.00104,110.84,,,,,,,
5998.74,0.00102,107.08,,,,,,,
5998.77,0.00099,103.23,,,,,,,
5998.79,0.00097,99.41,,,,,,,
5998.82,0.00094,95.58,,,,,,,
5998.85,0.00092,91.73,,,,,,,
5998.88,0.00089,87.73,,,,,,,
5998.9,0.00087,83.75,,,,,,,
5998.93,0.00084,79.77,,,,,,,
5998.96,0.00081,75.48,,,,,,,
5998.99,0.00079,71.06,,,,,,,
5999.01,0.00076,67.16,,,,,,,
5999.04,0.00074,63.56,,,,,,,
5999.06,0.00071,59.94,,,,,,,
5999.08,0.00069,56.29,,,,,,,
5999.11,0.00066,52.7,,,,,,,
5999.14,0.00064,48.96,,,,,,,
5999.17,0.00061,45.29,,,,,,,
5999.19,0.00058,41.69,,,,,,,
5999.22,0.00056,38.23,,,,,,,
5999.24,0.00053,34.86,,,,,,,
5999.27,0.00051,31.4,,,,,,,
5999.3,0.00048,27.88,,,,,,,
5999.32,0.00046,24.33,,,,,,,
5999.35,0.00043,20.54,,,,,,,
5999.38,0.00041,16.55,,,,,,,
5999.41,0.00038,12.81,,,,,,,
5999.43,0.00036,8.96,,,,,,,
5999.46,0.00033,5.21,,,,,,,
5999.49,0.00031,1.69,,,,,,,
5999.51,0.00028,-1.66,,,,,,,
5999.53,0.00026,-4.9,,,,,,,
5999.56,0.00023,-7.83,,,,,,,
5999.59,0.0002,-11.16,,,,,,,
5999.63,0.00018,-14.19,,,,,,,
5999.73,0.00015,-21.52,,,,,,,
5999.75,0.00013,-28.03,,,,,,,
5999.76,0.0001,-32.94,,,,,,,
5999.77,8e-05,-37.0,,,,,,,
5999.78,5e-05,-40.25,,,,,,,
5999.79,3e-05,-43.19,,,,,,,
5999.8,-0.0,-45.95,,,,,,,
5999.81,-3e-05,-48.1,,,,,,,
5999.83,-5e-05,-49.8,,,,,,,
5999.85,-8e-05,-51.0,,,,,,,
5999.87,-9e-05,-51.26,,,,,,,
5999.93,-0.0001,-53.64,,,,,,,
5999.97,-0.00013,-58.46,,,,,,,
6000.0,-0.00015,-62.81,,,,,,,
6000.02,-0.00018,-67.18,,,,,,,
6000.05,-0.0002,-70.98,,,,,,,
6000.07,-0.00023,-74.34,,,,,,,
6000.09,-0.00025,-77.45,,,,,,,
6000.12,-0.00028,-80.35,,,,,,,
6000.14,-0.0003,-83.11,,,,,,,
6000.17,-0.00033,-86.27,,,,,,,
6000.21,-0.00035,-90.08,,,,,,,
6000.24,-0.00038,-93.87,,,,,,,
6000.27,-0.00041,-97.41,,,,,,,
6000.29,-0.00043,-100.8,,,,,,,
6000.32,-0.00046,-104.0,,,,,,,
6000.34,-0.00048,-107.0,,,,,,,
6000.37,-0.00051,-110.2,,,,,,,
6000.4,-0.00053,-113.9,,,,,,,
6000.43,-0.00056,-118.1,,,,,,,
6000.46,-0.00058,-122.7,,,,,,,
6000.49,-0.00061,-126.9,,,,,,,
6000.5,-0.00064,-130.9,,,,,,,
6000.52,-0.00066,-134.5,,,,,,,
6000.54,-0.00069,-137.9,,,,,,,
6000.56,-0.00071,-141.0,,,,,,,
6000.58,-0.00074,-144.1,,,,,,,
6000.6,-0.00076,-147.1,,,,,,,
6000.62,-0.00079,-150.3,,,,,,,
6000.64,-0.00082,-153.3,,,,,,,
6000.67,-0.00084,-156.5,,,,,,,
6000.69,-0.00087,-159.9,,,,,,,
6000.71,-0.00089,-163.1,,,,,,,
6000.74,-0.00092,-166.2,,,,,,,
6000.76,-0.00094,-169.5,,,,,,,
6000.79,-0.00097,-172.7,,,,,,,
6000.81,-0.00099,-176.2,,,,,,,
6000.84,-0.00102,-179.5,,,,,,,
6000.86,-0.00105,-182.2,,,,,,,
6000.89,-0.00107,-185.1,,,,,,,
6000.91,-0.0011,-184.8,,,,,,,
6000.91,-0.00113,-185.7,,,,,,,
6000.92,-0.00116,-186.2,,,,,,,
6000.92,-0.00118,-186.5,,,,,,,
6000.92,-0.00121,-186.8,,,,,,,
6000.92,-0.00124,-187.1,,,,,,,
6000.93,-0.00127,-187.4,,,,,,,
6000.93,-0.0013,-187.4,,,,,,,
6000.94,-0.00133,-187.1,,,,,,,
6000.94,-0.00135,-186.2,,,,,,,
6000.99,-0.00133,-166.7,,,,,,,
6001.0,-0.0013,-162.6,,,,,,,
6001.0,-0.00127,-159.3,,,,,,,
6001.01,-0.00125,-156.6,,,,,,,
6001.02,-0.00122,-154.5,,,,,,,
6001.03,-0.00119,-153.2,,,,,,,
6001.05,-0.00117,-153.9,,,,,,,
6001.09,-0.0012,-165.3,,,,,,,
6001.1,-0.00122,-170.2,,,,,,,
6001.11,-0.00125,-174.2,,,,,,,
6001.12,-0.00128,-177.5,,,,,,,
6001.13,-0.0013,-180.5,,,,,,,
6001.13,-0.00133,-183.2,,,,,,,
6001.14,-0.00135,-185.5,,,,,,,
6001.16,-0.00138,-187.6,,,,,,,
6001.17,-0.0014,-189.3,,,,,,,
6001.19,-0.00143,-190.5,,,,,,,
6001.25,-0.00145,-191.5,,,,,,,
6001.35,-0.00143,-178.0,,,,,,,
6001.36,-0.0014,-173.2,,,,,,,
6001.38,-0.00138,-169.1,,,,,,,
6001.4,-0.00135,-165.3,,,,,,,
6001.41,-0.00132,-161.8,,,,,,,
6001.43,-0.0013,-158.4,,,,,,,
6001.46,-0.00127,-154.7,,,,,,,
6001.5,-0.00125,-150.5,,,,,,,
6001.53,-0.00122,-145.7,,,,,,,
6001.56,-0.0012,-140.9,,,,,,,
6001.59,-0.00117,-136.5,,,,,,,
6001.61,-0.00115,-132.3,,,,,,,
6001.64,-0.00112,-127.8,,,,,,,
6001.67,-0.00109,-123.2,,,,,,,
6001.69,-0.00107,-119.0,,,,,,,
6001.72,-0.00104,-114.9,,,,,,,
6001.74,-0.00102,-110.9,,,,,,,
6001.77,-0.00099,-106.7,,,,,,,
6001.8,-0.00097,-102.3,,,,,,,
6001.83,-0.00094,-98.28,,,,,,,
6001.86,-0.00092,-93.85,,,,,,,
6001.88,-0.00089,-89.78,,,,,,,
6001.91,-0.00086,-85.46,,,,,,,
6001.94,-0.00084,-81.19,,,,,,,
6001.96,-0.00081,-77.18,,,,,,,
6001.99,-0.00079,-73.24,,,,,,,
6002.01,-0.00076,-69.17,,,,,,,
6002.04,-0.00074,-65.18,,,,,,,
6002.06,-0.00071,-61.35,,,,,,,
6002.09,-0.00069,-57.81,,,,,,,
6002.11,-0.00066,-54.35,,,,,,,
6002.14,-0.00064,-50.51,,,,,,,
6002.17,-0.00061,-46.93,,,,,,,
6002.19,-0.00058,-43.31,,,,,,,
6002.22,-0.00056,-39.42,,,,,,,
6002.25,-0.00053,-35.75,,,,,,,
6002.28,-0.00051,-32.04,,,,,,,
6002.3,-0.00048,-28.42,,,,,,,
6002.33,-0.00046,-24.46,,,,,,,
6002.36,-0.00043,-20.62,,,,,,,
6002.39,-0.00041,-16.43,,,,,,,
6002.41,-0.00038,-12.59,,,,,,,
6002.44,-0.00036,-8.76,,,,,,,
6002.46,-0.00033,-5.1,,,,,,,
6002.49,-0.0003,-1.08,,,,,,,
6002.52,-0.00028,2.8,,,,,,,
6002.54,-0.00025,6.58,,,,,,,
6002.57,-0.00023,10.37,,,,,,,
6002.6,-0.0002,13.88,,,,,,,
6002.62,-0.00018,17.7,,,,,,,
6002.65,-0.00015,21.46,,,,,,,
6002.68,-0.00013,25.15,,,,,,,
6002.7,-0.0001,28.45,,,,,,,
12005.55,-5e-05,20.78,,,,,,,
12005.58,-3e-05,24.57,,,,,,,
12005.61,-0.0,28.47,,,,,,,
12005.64,2e-05,32.59,,,,,,,
12005.68,5e-05,34.38,,,,,,,
12005.77,7e-05,44.69,,,,,,,
12005.79,0.0001,50.55,,,,,,,
12005.8,0.00013,54.88,,,,,,,
12005.81,0.00015,58.67,,,,,,,
12005.82,0.00018,62.05,,,,,,,
12005.83,0.00021,64.91,,,,,,,
12005.84,0.00023,67.33,,,,,,,
12005.85,0.00026,69.42,,,,,,,
12005.87,0.00028,71.13,,,,,,,
12005.91,0.00031,72.15,,,,,,,
12005.99,0.00033,78.41,,,,,,,
12006.01,0.00036,82.59,,,,,,,
12006.03,0.00039,86.39,,,,,,,
12006.05,0.00041,89.61,,,,,,,
12006.08,0.00044,92.76,,,,,,,
12006.1,0.00046,95.93,,,,,,,
12006.13,0.00049,99.2,,,,,,,
12006.16,0.00051,102.66,,,,,,,
12006.19,0.00054,106.25,,,,,,,
12006.22,0.00056,109.93,,,,,,,
12006.25,0.00059,113.38,,,,,,,
12006.28,0.00061,117.05,,,,,,,
12006.3,0.00064,120.37,,,,,,,
12006.33,0.00067,123.94,,,,,,,
12006.36,0.00069,127.22,,,,,,,
12006.39,0.00072,130.45,,,,,,,
12006.41,0.00074,133.83,,,,,,,
12006.44,0.00077,136.94,,,,,,,
12006.47,0.00079,140.39,,,,,,,
12006.5,0.00082,143.98,,,,,,,
12006.53,0.00084,147.54,,,,,,,
12006.55,0.00087,151.0,,,,,,,
12006.58,0.0009,154.85,,,,,,,
12006.6,0.00092,158.35,,,,,,,
12006.62,0.00095,161.99,,,,,,,
12006.64,0.00097,165.51,,,,,,,
12006.66,0.001,168.89,,,,,,,
12006.68,0.00102,171.96,,,,,,,
12006.7,0.00105,175.09,,,,,,,
12006.72,0.00108,178.0,,,,,,,
12006.74,0.0011,180.95,,,,,,,
12006.76,0.00113,183.85,,,,,,,
12006.79,0.00115,186.64,,,,,,,
12006.81,0.00118,189.32,,,,,,,
12006.83,0.0012,191.52,,,,,,,
12006.85,0.00123,191.69,,,,,,,
12006.85,0.00126,192.33,,,,,,,
12006.86,0.00129,192.79,,,,,,,
12006.86,0.00132,193.19,,,,,,,
12006.87,0.00134,193.38,,,,,,,
12006.88,0.00137,193.24,,,,,,,
12006.9,0.00139,190.68,,,,,,,
12006.93,0.00137,183.47,,,,,,,
12006.95,0.00134,180.98,,,,,,,
12007.03,0.00137,191.62,,,,,,,
12007.05,0.00139,195.0,,,,,,,
12007.06,0.00142,198.03,,,,,,,
12007.07,0.00144,200.15,,,,,,,
12007.09,0.00147,200.68,,,,,,,
12007.16,0.00144,185.73,,,,,,,
12007.17,0.00142,181.44,,,,,,,
12007.18,0.00139,177.52,,,,,,,
12007.2,0.00136,173.86,,,,,,,
12007.21,0.00134,170.48,,,,,,,
12007.22,0.00131,167.33,,,,,,,
12007.24,0.00129,164.61,,,,,,,
12007.27,0.00126,161.89,,,,,,,
12007.31,0.00123,158.31,,,,,,,
12007.35,0.00121,152.83,,,,,,,
12007.39,0.00118,147.77,,,,,,,
12007.41,0.00116,143.7,,,,,,,
12007.43,0.00113,139.9,,,,,,,
12007.45,0.00111,136.53,,,,,,,
12007.47,0.00108,133.2,,,,,,,
12007.5,0.00106,129.34,,,,,,,
12007.53,0.00103,125.32,,,,,,,
12007.56,0.00101,121.36,,,,,,,
12007.59,0.00098,117.46,,,,,,,
12007.61,0.00096,113.83,,,,,,,
12007.64,0.00093,109.88,,,,,,,
12007.67,0.0009,106.12,,,,,,,
12007.69,0.00088,102.39,,,,,,,
12007.72,0.00085,98.66,,,,,,,
12007.75,0.00083,94.58,,,,,,,
12007.78,0.0008,90.54,,,,,,,
12007.8,0.00078,86.47,,,,,,,
12007.83,0.00075,82.84,,,,,,,
12007.85,0.00073,79.05,,,,,,,
12007.88,0.0007,75.5,,,,,,,
12007.91,0.00067,71.7,,,,,,,
12007.94,0.00065,67.73,,,,,,,
12007.96,0.00062,63.82,,,,,,,
12007.99,0.0006,60.05,,,,,,,
12008.02,0.00057,56.24,,,,,,,
12008.04,0.00055,52.41,,,,,,,
12008.07,0.00052,48.62,,,,,,,
12008.09,0.0005,45.04,,,,,,,
12008.12,0.00047,41.28,,,,,,,
12008.15,0.00045,37.44,,,,,,,
12008.18,0.00042,33.79,,,,,,,
12008.2,0.00039,29.99,,,,,,,
12008.23,0.00037,26.4,,,,,,,
12008.26,0.00034,22.59,,,,,,,
12008.28,0.00032,19.01,,,,,,,
12008.31,0.00029,15.08,,,,,,,
12008.34,0.00027,11.47,,,,,,,
12008.36,0.00024,7.67,,,,,,,
12008.39,0.00021,3.98,,,,,,,
12008.42,0.00019,0.53,,,,,,,
12008.44,0.00016,-3.18,,,,,,,
12008.47,0.00014,-6.83,,,,,,,
12008.5,0.00011,-10.67,,,,,,,
12008.53,9e-05,-14.04,,,,,,,
12008.56,6e-05,-14.81,,,,,,,
12008.66,4e-05,-24.87,,,,,,,
12008.67,1e-05,-30.56,,,,,,,
12008.68,-1e-05,-35.08,,,,,,,
12008.7,-4e-05,-38.91,,,,,,,
12008.71,-7e-05,-42.22,,,,,,,
12008.72,-9e-05,-45.15,,,,,,,
12008.73,-0.00012,-47.61,,,,,,,
12008.74,-0.00014,-49.5,,,,,,,
12008.76,-0.00017,-51.08,,,,,,,
12008.83,-0.00019,-54.09,,,,,,,
12008.87,-0.00022,-59.06,,,,,,,
12008.9,-0.00025,-63.36,,,,,,,
12008.92,-0.00027,-66.87,,,,,,,
12008.95,-0.0003,-70.13,,,,,,,
12008.97,-0.00032,-73.06,,,,,,,
12009.0,-0.00035,-76.24,,,,,,,
12009.03,-0.00037,-79.52,,,,,,,
12009.06,-0.0004,-82.99,,,,,,,
12009.09,-0.00042,-86.27,,,,,,,
12009.11,-0.00045,-89.27,,,,,,,
12009.14,-0.00048,-92.39,,,,,,,
12009.17,-0.0005,-95.84,,,,,,,
12009.2,-0.00053,-99.03,,,,,,,
12009.22,-0.00055,-102.3,,,,,,,
12009.25,-0.00058,-105.5,,,,,,,
12009.28,-0.0006,-108.6,,,,,,,
12009.31,-0.00063,-111.9,,,,,,,
12009.33,-0.00065,-115.2,,,,,,,
12009.36,-0.00068,-118.8,,,,,,,
12009.39,-0.00071,-122.9,,,,,,,
12009.41,-0.00073,-126.8,,,,,,,
12009.43,-0.00076,-130.7,,,,,,,
12009.45,-0.00078,-134.2,,,,,,,
12009.47,-0.00081,-137.9,,,,,,,
12009.49,-0.00083,-141.2,,,,,,,
12009.51,-0.00086,-144.6,,,,,,,
12009.53,-0.00089,-148.1,,,,,,,
12009.56,-0.00091,-151.6,,,,,,,
12009.58,-0.00094,-155.1,,,,,,,
12009.6,-0.00096,-158.8,,,,,,,
12009.63,-0.00099,-162.5,,,,,,,
12009.65,-0.00101,-165.8,,,,,,,
12009.67,-0.00104,-169.3,,,,,,,
12009.7,-0.00107,-172.8,,,,,,,
12009.72,-0.00109,-175.8,,,,,,,
12009.74,-0.00112,-179.0,,,,,,,
12009.77,-0.00114,-182.4,,,,,,,
12009.79,-0.00117,-185.6,,,,,,,
12009.82,-0.00119,-188.3,,,,,,,
12009.84,-0.00122,-190.0,,,,,,,
12009.85,-0.00125,-190.8,,,,,,,
12009.86,-0.00127,-191.5,,,,,,,
12009.86,-0.0013,-192.0,,,,,,,
12009.87,-0.00132,-192.4,,,,,,,
12009.87,-0.00134,-192.6,,,,,,,
12009.87,-0.00135,-192.7,,,,,,,
12009.88,-0.00138,-192.5,,,,,,,
12009.95,-0.00135,-181.3,,,,,,,
12010.04,-0.00138,-192.7,,,,,,,
12010.05,-0.00141,-195.9,,,,,,,
12010.07,-0.00143,-198.6,,,,,,,
12010.08,-0.00146,-200.2,,,,,,,
12010.1,-0.00148,-199.4,,,,,,,
12010.15,-0.00146,-187.7,,,,,,,
12010.16,-0.00143,-182.7,,,,,,,
12010.18,-0.00141,-178.7,,,,,,,
12010.19,-0.00138,-175.1,,,,,,,
12010.2,-0.00135,-171.9,,,,,,,
12010.21,-0.00133,-169.0,,,,,,,
12010.23,-0.0013,-166.2,,,,,,,
12010.25,-0.00128,-163.6,,,,,,,
12010.28,-0.00125,-161.1,,,,,,,
12010.33,-0.00123,-156.0,,,,,,,
12010.37,-0.0012,-150.6,,,,,,,
12010.39,-0.00118,-146.0,,,,,,,
12010.42,-0.00115,-142.0,,,,,,,
12010.44,-0.00112,-138.2,,,,,,,
12010.46,-0.0011,-134.4,,,,,,,
12010.49,-0.00107,-130.6,,,,,,,
12010.51,-0.00105,-126.9,,,,,,,
12010.54,-0.00102,-123.1,,,,,,,
12010.57,-0.001,-118.9,,,,,,,
12010.6,-0.00097,-114.7,,,,,,,
12010.63,-0.00095,-110.7,,,,,,,
12010.65,-0.00092,-106.8,,,,,,,
12010.68,-0.00089,-102.9,,,,,,,
12010.71,-0.00087,-99.1,,,,,,,
12010.73,-0.00084,-95.36,,,,,,,
12010.76,-0.00082,-91.62,,,,,,,
12010.79,-0.00079,-87.89,,,,,,,
12010.81,-0.00077,-84.03,,,,,,,
12010.84,-0.00074,-80.36,,,,,,,
12010.87,-0.00072,-76.76,,,,,,,
12010.89,-0.00069,-72.79,,,,,,,
12010.92,-0.00066,-69.38,,,,,,,
12010.94,-0.00064,-65.59,,,,,,,
12010.97,-0.00061,-61.86,,,,,,,
12011.0,-0.00059,-58.28,,,,,,,
12011.02,-0.00056,-54.52,,,,,,,
12011.05,-0.00054,-50.67,,,,,,,
12011.08,-0.00051,-46.78,,,,,,,
12011.11,-0.00049,-42.85,,,,,,,
12011.13,-0.00046,-38.9,,,,,,,
12011.16,-0.00044,-35.26,,,,,,,
12011.19,-0.00041,-31.39,,,,,,,
12011.21,-0.00039,-27.69,,,,,,,
12011.24,-0.00036,-23.69,,,,,,,
12011.27,-0.00033,-19.85,,,,,,,
12011.3,-0.00031,-15.7,,,,,,,
12011.32,-0.00028,-11.72,,,,,,,
12011.35,-0.00026,-7.62,,,,,,,
12011.38,-0.00023,-3.6,,,,,,,
12011.4,-0.00021,0.64,,,,,,,
12011.43,-0.00018,4.76,,,,,,,
12011.46,-0.00016,9.2,,,,,,,
12011.49,-0.00013,13.22,,,,,,,
12011.51,-0.00011,17.18,,,,,,,
12011.54,-8e-05,21.06,,,,,,,
30031.94,-7e-05,28.49,,,,,,,
30031.97,-5e-05,31.72,,,,,,,
30032.0,-2e-05,33.41,,,,,,,
30032.1,1e-05,41.58,,,,,,,
30032.12,3e-05,47.31,,,,,,,
30032.13,6e-05,51.46,,,,,,,
30032.14,8e-05,55.25,,,,,,,
30032.15,0.00011,58.35,,,,,,,
30032.16,0.00014,61.34,,,,,,,
30032.17,0.00016,63.77,,,,,,,
30032.18,0.00019,65.83,,,,,,,
30032.2,0.00021,67.39,,,,,,,
30032.27,0.00024,69.53,,,,,,,
30032.32,0.00026,75.94,,,,,,,
30032.35,0.00029,80.41,,,,,,,
30032.37,0.00031,84.33,,,,,,,
30032.39,0.00034,87.96,,,,,,,
30032.41,0.00037,91.28,,,,,,,
30032.44,0.00039,94.64,,,,,,,
30032.47,0.00042,98.04,,,,,,,
30032.5,0.00044,101.37,,,,,,,
30032.53,0.00047,104.87,,,,,,,
30032.56,0.00049,108.21,,,,,,,
30032.58,0.00052,111.64,,,,,,,
30032.61,0.00054,114.92,,,,,,,
30032.64,0.00057,118.03,,,,,,,
30032.66,0.0006,121.23,,,,,,,
30032.69,0.00062,124.48,,,,,,,
30032.72,0.00065,127.82,,,,,,,
30032.75,0.00067,130.94,,,,,,,
30032.78,0.0007,134.44,,,,,,,
30032.81,0.00072,137.58,,,,,,,
30032.83,0.00075,140.7,,,,,,,
30032.86,0.00077,143.79,,,,,,,
30032.88,0.0008,147.01,,,,,,,
30032.91,0.00083,150.21,,,,,,,
30032.93,0.00085,153.78,,,,,,,
30032.95,0.00088,157.3,,,,,,,
30032.97,0.0009,160.54,,,,,,,
30033.0,0.00093,163.79,,,,,,,
30033.02,0.00095,167.02,,,,,,,
30033.04,0.00098,170.01,,,,,,,
30033.06,0.00101,173.13,,,,,,,
30033.08,0.00103,176.33,,,,,,,
30033.11,0.00106,179.48,,,,,,,
30033.13,0.00108,182.31,,,,,,,
30033.15,0.00111,184.84,,,,,,,
30033.16,0.00113,186.63,,,,,,,
30033.18,0.00116,187.9,,,,,,,
30033.19,0.00119,188.87,,,,,,,
30033.2,0.00121,189.76,,,,,,,
30033.22,0.00124,190.16,,,,,,,
30033.26,0.00126,189.52,,,,,,,
30033.33,0.00129,193.24,,,,,,,
30033.36,0.00131,196.98,,,,,,,
30033.38,0.00134,197.68,,,,,,,
30033.38,0.00137,198.64,,,,,,,
30033.39,0.0014,199.28,,,,,,,
30033.39,0.00143,199.86,,,,,,,
30033.39,0.00147,200.34,,,,,,,
30033.4,0.00149,200.71,,,,,,,
30033.4,0.00152,200.97,,,,,,,
30033.41,0.00155,200.87,,,,,,,
30033.42,0.00157,199.93,,,,,,,
30033.46,0.00155,184.78,,,,,,,
30033.47,0.00152,180.84,,,,,,,
30033.48,0.00149,177.2,,,,,,,
30033.5,0.00147,173.85,,,,,,,
30033.51,0.00144,170.83,,,,,,,
30033.52,0.00142,167.89,,,,,,,
30033.54,0.00139,165.15,,,,,,,
30033.56,0.00137,162.53,,,,,,,
30033.61,0.00134,158.49,,,,,,,
30033.65,0.00132,152.81,,,,,,,
30033.68,0.00129,148.38,,,,,,,
30033.7,0.00127,144.44,,,,,,,
30033.72,0.00124,140.73,,,,,,,
30033.75,0.00121,137.42,,,,,,,
30033.77,0.00119,134.21,,,,,,,
30033.79,0.00116,130.97,,,,,,,
30033.82,0.00114,127.4,,,,,,,
30033.85,0.00111,123.7,,,,,,,
30033.88,0.00109,119.68,,,,,,,
30033.91,0.00106,115.61,,,,,,,
30033.94,0.00104,111.28,,,,,,,
30033.97,0.00101,107.05,,,,,,,
30033.99,0.00099,103.46,,,,,,,
30034.02,0.00096,99.79,,,,,,,
30034.04,0.00093,96.25,,,,,,,
30034.07,0.00091,92.68,,,,,,,
30034.09,0.00088,88.96,,,,,,,
30034.12,0.00086,85.19,,,,,,,
30034.15,0.00083,81.18,,,,,,,
30034.18,0.00081,77.44,,,,,,,
30034.21,0.00078,73.56,,,,,,,
30034.23,0.00076,69.55,,,,,,,
30034.26,0.00073,65.74,,,,,,,
30034.29,0.0007,61.79,,,,,,,
30034.31,0.00068,57.79,,,,,,,
30034.34,0.00065,53.99,,,,,,,
30034.37,0.00063,50.09,,,,,,,
30034.39,0.0006,46.22,,,,,,,
30034.42,0.00058,42.45,,,,,,,
30034.45,0.00055,38.82,,,,,,,
30034.47,0.00053,35.2,,,,,,,
30034.5,0.0005,31.72,,,,,,,
30034.53,0.00047,27.92,,,,,,,
30034.55,0.00045,24.21,,,,,,,
30034.58,0.00042,20.53,,,,,,,
30034.61,0.0004,16.73,,,,,,,
30034.64,0.00037,13.01,,,,,,,
30034.66,0.00035,9.24,,,,,,,
30034.69,0.00032,5.27,,,,,,,
30034.72,0.0003,1.27,,,,,,,
30034.74,0.00027,-2.2,,,,,,,
30034.77,0.00025,-5.71,,,,,,,
30034.8,0.00022,-9.67,,,,,,,
30034.82,0.00019,-13.32,,,,,,,
30034.86,0.00017,-15.53,,,,,,,
30034.96,0.00014,-23.55,,,,,,,
30034.98,0.00012,-29.96,,,,,,,
30034.99,9e-05,-34.68,,,,,,,
30035.0,6e-05,-38.59,,,,,,,
30035.01,4e-05,-41.79,,,,,,,
30035.02,1e-05,-44.65,,,,,,,
30035.03,-1e-05,-47.27,,,,,,,
30035.05,-4e-05,-49.4,,,,,,,
30035.06,-7e-05,-51.05,,,,,,,
30035.14,-9e-05,-54.47,,,,,,,
30035.18,-0.00012,-60.03,,,,,,,
30035.21,-0.00014,-63.94,,,,,,,
30035.23,-0.00017,-67.44,,,,,,,
30035.25,-0.00019,-70.46,,,,,,,
30035.27,-0.00022,-73.25,,,,,,,
30035.29,-0.00024,-75.92,,,,,,,
30035.32,-0.00027,-79.01,,,,,,,
30035.36,-0.00029,-82.57,,,,,,,
30035.39,-0.00032,-86.74,,,,,,,
30035.42,-0.00034,-90.64,,,,,,,
30035.45,-0.00037,-94.35,,,,,,,
30035.48,-0.0004,-98.04,,,,,,,
30035.5,-0.00042,-101.7,,,,,,,
30035.53,-0.00045,-105.1,,,,,,,
30035.56,-0.00047,-108.6,,,,,,,
30035.59,-0.0005,-112.2,,,,,,,
30035.61,-0.00052,-115.7,,,,,,,
30035.64,-0.00055,-119.1,,,,,,,
30035.66,-0.00057,-122.7,,,,,,,
30035.69,-0.0006,-126.3,,,,,,,
30035.71,-0.00063,-129.9,,,,,,,
30035.73,-0.00065,-133.3,,,,,,,
30035.75,-0.00068,-136.6,,,,,,,
30035.76,-0.0007,-139.7,,,,,,,
30035.78,-0.00073,-142.7,,,,,,,
30035.81,-0.00075,-145.7,,,,,,,
30035.82,-0.00078,-148.6,,,,,,,
30035.85,-0.0008,-151.6,,,,,,,
30035.87,-0.00083,-154.8,,,,,,,
30035.89,-0.00085,-157.8,,,,,,,
30035.92,-0.00088,-161.1,,,,,,,
30035.94,-0.00091,-164.1,,,,,,,
30035.97,-0.00093,-167.1,,,,,,,
30035.99,-0.00096,-170.1,,,,,,,
30036.01,-0.00098,-172.9,,,,,,,
30036.04,-0.00101,-175.7,,,,,,,
30036.06,-0.00103,-178.6,,,,,,,
30036.09,-0.00106,-181.8,,,,,,,
30036.11,-0.00108,-184.7,,,,,,,
30036.14,-0.00111,-187.6,,,,,,,
30036.16,-0.00113,-190.1,,,,,,,
30036.17,-0.00116,-189.9,,,,,,,
30036.18,-0.00119,-190.6,,,,,,,
30036.18,-0.00122,-191.1,,,,,,,
30036.19,-0.00125,-191.5,,,,,,,
30036.19,-0.00127,-191.7,,,,,,,
30036.2,-0.0013,-191.9,,,,,,,
30036.2,-0.00133,-191.8,,,,,,,
30036.21,-0.00136,-191.0,,,,,,,
30036.26,-0.00133,-175.4,,,,,,,
30036.27,-0.0013,-172.1,,,,,,,
30036.28,-0.00128,-169.5,,,,,,,
30036.29,-0.00125,-167.9,,,,,,,
30036.31,-0.00123,-168.4,,,,,,,
30036.35,-0.00125,-178.2,,,,,,,
30036.36,-0.00128,-182.8,,,,,,,
30036.38,-0.0013,-186.5,,,,,,,
30036.39,-0.00133,-189.7,,,,,,,
30036.39,-0.00136,-192.8,,,,,,,
30036.41,-0.00138,-195.3,,,,,,,
30036.42,-0.00141,-197.6,,,,,,,
30036.43,-0.00144,-199.5,,,,,,,
30036.45,-0.00146,-200.8,,,,,,,
30036.47,-0.00149,-201.1,,,,,,,
30036.54,-0.00146,-185.9,,,,,,,
30036.56,-0.00143,-181.5,,,,,,,
30036.57,-0.00141,-177.6,,,,,,,
30036.58,-0.00138,-174.2,,,,,,,
30036.6,-0.00136,-170.9,,,,,,,
30036.61,-0.00133,-167.6,,,,,,,
30036.63,-0.00131,-164.7,,,,,,,
30036.66,-0.00128,-161.6,,,,,,,
30036.71,-0.00126,-157.0,,,,,,,
30036.75,-0.00123,-151.4,,,,,,,
30036.77,-0.0012,-146.4,,,,,,,
30036.8,-0.00118,-142.2,,,,,,,
30036.82,-0.00115,-138.0,,,,,,,
30036.84,-0.00113,-134.3,,,,,,,
30036.86,-0.0011,-130.9,,,,,,,
30036.89,-0.00108,-127.7,,,,,,,
30036.91,-0.00105,-124.2,,,,,,,
30036.94,-0.00103,-120.7,,,,,,,
30036.97,-0.001,-116.6,,,,,,,
30037.0,-0.00098,-112.6,,,,,,,
30037.03,-0.00095,-108.3,,,,,,,
30037.06,-0.00092,-104.0,,,,,,,
30037.09,-0.0009,-99.97,,,,,,,
30037.11,-0.00087,-95.81,,,,,,,
30037.14,-0.00085,-91.93,,,,,,,
30037.16,-0.00082,-88.23,,,,,,,
30037.19,-0.0008,-84.21,,,,,,,
30037.22,-0.00077,-80.33,,,,,,,
30037.25,-0.00075,-76.5,,,,,,,
30037.28,-0.00072,-72.03,,,,,,,
30037.3,-0.00069,-68.25,,,,,,,
30037.32,-0.00067,-64.87,,,,,,,
30037.35,-0.00064,-61.32,,,,,,,
30037.37,-0.00062,-57.9,,,,,,,
30037.4,-0.00059,-54.07,,,,,,,
30037.43,-0.00057,-49.95,,,,,,,
30037.46,-0.00054,-45.73,,,,,,,
30037.49,-0.00052,-40.83,,,,,,,
30037.52,-0.00049,-36.22,,,,,,,
30037.55,-0.00047,-31.84,,,,,,,
30037.57,-0.00044,-27.69,,,,,,,
30037.6,-0.00042,-23.74,,,,,,,
30037.62,-0.00039,-19.83,,,,,,,
30037.64,-0.00036,-16.11,,,,,,,
30037.67,-0.00034,-12.8,,,,,,,
30037.7,-0.00031,-9.07,,,,,,,
30037.72,-0.00029,-5.25,,,,,,,
30037.75,-0.00026,-1.28,,,,,,,
30037.78,-0.00024,2.36,,,,,,,
30037.81,-0.00021,6.13,,,,,,,
30037.83,-0.00019,9.71,,,,,,,
30037.86,-0.00016,13.38,,,,,,,
30037.89,-0.00014,17.25,,,,,,,
30037.91,-0.00011,20.98,,,,,,,
30037.94,-8e-05,24.67,,,,,,,
31836.12,0.00142,199.27,,,,,,,
31836.15,0.00145,199.59,,,,,,,
31836.21,0.00143,187.81,,,,,,,
31836.23,0.0014,183.1,,,,,,,
31836.24,0.00137,179.18,,,,,,,
31836.26,0.00135,175.56,,,,,,,
31836.27,0.00132,172.12,,,,,,,
31836.29,0.0013,168.93,,,,,,,
31836.31,0.00127,166.01,,,,,,,
31836.34,0.00125,162.84,,,,,,,
31836.38,0.00122,158.82,,,,,,,
31836.41,0.0012,154.04,,,,,,,
31836.45,0.00117,149.15,,,,,,,
31836.47,0.00114,145.02,,,,,,,
31836.5,0.00112,141.11,,,,,,,
31836.52,0.00109,136.9,,,,,,,
31836.55,0.00107,132.71,,,,,,,
31836.57,0.00104,128.76,,,,,,,
31836.6,0.00102,124.64,,,,,,,
31836.63,0.00099,120.75,,,,,,,
31836.65,0.00097,116.82,,,,,,,
31836.68,0.00094,112.98,,,,,,,
31836.71,0.00091,108.99,,,,,,,
31836.73,0.00089,105.4,,,,,,,
31836.77,0.00086,101.13,,,,,,,
31836.79,0.00084,96.73,,,,,,,
31836.82,0.00081,92.84,,,,,,,
31836.84,0.00079,88.82,,,,,,,
31836.87,0.00076,85.06,,,,,,,
31836.89,0.00074,81.34,,,,,,,
31836.92,0.00071,77.41,,,,,,,
31836.95,0.00069,73.29,,,,,,,
31836.97,0.00066,69.45,,,,,,,
31837.0,0.00064,65.66,,,,,,,
31837.02,0.00061,62.15,,,,,,,
31837.05,0.00058,58.54,,,,,,,
31837.08,0.00056,54.82,,,,,,,
31837.11,0.00053,51.15,,,,,,,
31837.13,0.00051,47.36,,,,,,,
31837.16,0.00048,43.76,,,,,,,
31837.19,0.00046,40.08,,,,,,,
31837.21,0.00043,36.39,,,,,,,
31837.24,0.00041,32.62,,,,,,,
31837.27,0.00038,28.98,,,,,,,
31837.29,0.00036,25.03,,,,,,,
31837.32,0.00033,21.34,,,,,,,
31837.35,0.0003,17.48,,,,,,,
31837.37,0.00028,13.98,,,,,,,
31837.4,0.00025,10.51,,,,,,,
31837.42,0.00023,6.98,,,,,,,
31837.45,0.0002,3.6,,,,,,,
31837.48,0.00018,0.21,,,,,,,
31837.5,0.00015,-3.37,,,,,,,
31837.53,0.00012,-6.73,,,,,,,
31837.56,0.0001,-10.22,,,,,,,
31837.59,7e-05,-13.78,,,,,,,
31837.63,5e-05,-14.28,,,,,,,
31837.72,2e-05,-23.52,,,,,,,
31837.73,-0.0,-29.46,,,,,,,
31837.75,-3e-05,-34.0,,,,,,,
31837.76,-6e-05,-37.74,,,,,,,
31837.77,-8e-05,-40.86,,,,,,,
31837.78,-0.00011,-43.71,,,,,,,
31837.79,-0.00013,-46.22,,,,,,,
31837.8,-0.00016,-48.15,,,,,,,
31837.82,-0.00019,-49.53,,,,,,,
31837.89,-0.00021,-51.04,,,,,,,
31837.94,-0.00024,-56.95,,,,,,,
31837.97,-0.00026,-61.15,,,,,,,
31837.99,-0.00029,-64.93,,,,,,,
31838.01,-0.00031,-68.39,,,,,,,
31838.04,-0.00034,-71.86,,,,,,,
31838.07,-0.00036,-75.35,,,,,,,
31838.1,-0.00039,-78.96,,,,,,,
31838.13,-0.00041,-82.76,,,,,,,
31838.16,-0.00044,-86.52,,,,,,,
31838.18,-0.00047,-89.97,,,,,,,
31838.21,-0.00049,-93.65,,,,,,,
31838.24,-0.00052,-97.04,,,,,,,
31838.26,-0.00054,-100.6,,,,,,,
31838.29,-0.00057,-104.0,,,,,,,
31838.32,-0.00059,-107.7,,,,,,,
31838.34,-0.00062,-110.9,,,,,,,
31838.37,-0.00064,-114.2,,,,,,,
31838.4,-0.00067,-117.6,,,,,,,
31838.43,-0.00069,-121.2,,,,,,,
31838.45,-0.00072,-125.2,,,,,,,
31838.47,-0.00075,-129.3,,,,,,,
31838.5,-0.00077,-133.1,,,,,,,
31838.52,-0.0008,-136.7,,,,,,,
31838.54,-0.00082,-140.4,,,,,,,
31838.55,-0.00085,-143.7,,,,,,,
31838.57,-0.00087,-147.0,,,,,,,
31838.59,-0.0009,-150.4,,,,,,,
31838.62,-0.00093,-153.7,,,,,,,
31838.64,-0.00095,-157.2,,,,,,,
31838.66,-0.00098,-160.6,,,,,,,
31838.69,-0.001,-164.1,,,,,,,
31838.71,-0.00103,-167.5,,,,,,,
31838.73,-0.00105,-170.9,,,,,,,
31838.76,-0.00108,-174.0,,,,,,,
31838.78,-0.00111,-177.3,,,,,,,
31838.81,-0.00113,-180.3,,,,,,,
31838.83,-0.00116,-183.5,,,,,,,
31838.86,-0.00118,-186.6,,,,,,,
31838.88,-0.00121,-189.5,,,,,,,
31838.9,-0.00123,-192.1,,,,,,,
31838.92,-0.00126,-193.7,,,,,,,
31838.93,-0.00128,-194.8,,,,,,,
31838.94,-0.00131,-195.6,,,,,,,
31838.95,-0.00134,-196.3,,,,,,,
31838.97,-0.00136,-196.6,,,,,,,
31839.08,-0.00139,-196.3,,,,,,,
31839.11,-0.00141,-200.8,,,,,,,
31839.13,-0.00144,-203.1,,,,,,,
31839.17,-0.00147,-201.4,,,,,,,
31839.21,-0.00144,-191.5,,,,,,,
31839.22,-0.00141,-186.5,,,,,,,
31839.24,-0.00139,-182.4,,,,,,,
31839.25,-0.00136,-178.7,,,,,,,
31839.26,-0.00134,-175.3,,,,,,,
31839.28,-0.00131,-172.3,,,,,,,
31839.3,-0.00129,-169.3,,,,,,,
31839.32,-0.00126,-166.5,,,,,,,
31839.36,-0.00124,-162.9,,,,,,,
31839.4,-0.00121,-158.0,,,,,,,
31839.43,-0.00118,-153.1,,,,,,,
31839.46,-0.00116,-148.4,,,,,,,
31839.48,-0.00113,-144.3,,,,,,,
31839.51,-0.00111,-140.2,,,,,,,
31839.53,-0.00108,-136.0,,,,,,,
31839.56,-0.00106,-132.1,,,,,,,
31839.59,-0.00103,-128.1,,,,,,,
31839.61,-0.00101,-123.9,,,,,,,
31839.64,-0.00098,-119.5,,,,,,,
31839.67,-0.00096,-115.4,,,,,,,
31839.69,-0.00093,-111.4,,,,,,,
31839.72,-0.0009,-107.8,,,,,,,
31839.74,-0.00088,-103.9,,,,,,,
31839.77,-0.00085,-100.3,,,,,,,
31839.8,-0.00083,-96.43,,,,,,,
31839.82,-0.0008,-92.61,,,,,,,
31839.85,-0.00078,-88.45,,,,,,,
31839.87,-0.00076,-86.06,,,,,,,
31839.88,-0.00075,-84.28,,,,,,,
31839.91,-0.00073,-80.33,,,,,,,
31839.93,-0.0007,-76.58,,,,,,,
31839.96,-0.00068,-72.64,,,,,,,
31839.99,-0.00065,-68.64,,,,,,,
31840.01,-0.00062,-64.59,,,,,,,
31840.04,-0.0006,-60.62,,,,,,,
31840.06,-0.00057,-56.96,,,,,,,
31840.09,-0.00055,-53.02,,,,,,,
31840.12,-0.00052,-48.96,,,,,,,
31840.15,-0.0005,-44.63,,,,,,,
31840.18,-0.00047,-40.03,,,,,,,
31840.2,-0.00045,-35.97,,,,,,,
31840.23,-0.00042,-31.82,,,,,,,
31840.25,-0.0004,-27.86,,,,,,,
31840.28,-0.00037,-24.08,,,,,,,
31840.31,-0.00035,-20.23,,,,,,,
31840.33,-0.00032,-16.74,,,,,,,
31840.36,-0.0003,-13.29,,,,,,,
31840.38,-0.00027,-9.94,,,,,,,
31840.41,-0.00024,-6.22,,,,,,,
31840.44,-0.00022,-2.4,,,,,,,
31840.47,-0.00019,1.3,,,,,,,
31840.49,-0.00017,5.14,,,,,,,
31840.52,-0.00014,9.06,,,,,,,
31840.55,-0.00012,12.77,,,,,,,
31840.57,-9e-05,16.58,,,,,,,
31840.6,-7e-05,20.21,,,,,,,
31840.62,-4e-05,23.72,,,,,,,
31840.65,-2e-05,27.34,,,,,,,
31840.68,1e-05,31.08,,,,,,,
31840.71,4e-05,33.89,,,,,,,
31840.82,6e-05,40.7,,,,,,,
31840.83,9e-05,46.96,,,,,,,
31840.85,0.00011,51.84,,,,,,,
31840.86,0.00014,55.56,,,,,,,
31840.87,0.00017,59.01,,,,,,,
31840.88,0.00019,62.08,,,,,,,
31840.89,0.00022,64.78,,,,,,,
31840.9,0.00024,66.97,,,,,,,
31840.91,0.00027,68.73,,,,,,,
31840.94,0.0003,69.94,,,,,,,
31841.03,0.00032,74.76,,,,,,,
31841.06,0.00035,79.6,,,,,,,
31841.08,0.00037,83.7,,,,,,,
31841.1,0.0004,87.26,,,,,,,
31841.13,0.00042,90.6,,,,,,,
31841.15,0.00045,93.83,,,,,,,
31841.17,0.00048,96.91,,,,,,,
31841.2,0.0005,100.02,,,,,,,
31841.22,0.00053,102.81,,,,,,,
31841.26,0.00055,106.06,,,,,,,
31841.29,0.00058,109.68,,,,,,,
31841.32,0.0006,113.34,,,,,,,
31841.35,0.00063,116.82,,,,,,,
31841.38,0.00065,120.41,,,,,,,
31841.41,0.00068,124.13,,,,,,,
31841.44,0.0007,128.22,,,,,,,
31841.47,0.00073,132.66,,,,,,,
31841.5,0.00076,136.63,,,,,,,
31841.52,0.00078,140.5,,,,,,,
31841.55,0.00081,144.43,,,,,,,
31841.57,0.00083,147.99,,,,,,,
31841.6,0.00086,151.48,,,,,,,
31841.62,0.00088,155.04,,,,,,,
31841.64,0.00091,158.34,,,,,,,
31841.66,0.00093,161.43,,,,,,,
31841.68,0.00096,164.58,,,,,,,
31841.7,0.00099,167.66,,,,,,,
31841.73,0.00101,170.87,,,,,,,
31841.75,0.00104,174.14,,,,,,,
31841.77,0.00106,177.77,,,,,,,
31841.8,0.00109,181.29,,,,,,,
31841.82,0.00111,184.64,,,,,,,
31841.84,0.00114,187.9,,,,,,,
31841.86,0.00116,190.9,,,,,,,
31841.88,0.00119,192.54,,,,,,,
31841.89,0.00122,193.59,,,,,,,
31841.9,0.00124,194.5,,,,,,,
31841.91,0.00127,195.32,,,,,,,
31841.92,0.00129,195.86,,,,,,,
31841.93,0.00132,195.78,,,,,,,
31842.06,0.00134,197.85,,,,,,,
31842.08,0.00137,201.74,,,,,,,
57373.53,0.00144,202.79,,,,,,,
57373.54,0.00147,203.35,,,,,,,
57373.54,0.0015,203.73,,,,,,,
57373.54,0.00153,203.9,,,,,,,
57373.55,0.00156,203.74,,,,,,,
57373.55,0.00159,203.41,,,,,,,
57373.56,0.00162,203.05,,,,,,,
57373.56,0.00164,202.59,,,,,,,
57373.56,0.00167,201.69,,,,,,,
57373.57,0.0017,200.13,,,,,,,
57373.57,0.00173,197.53,,,,,,,
57373.61,0.0017,171.68,,,,,,,
57373.61,0.00167,165.67,,,,,,,
57373.62,0.00164,160.57,,,,,,,
57373.62,0.00162,155.53,,,,,,,
57373.63,0.00158,150.64,,,,,,,
57373.63,0.00156,146.92,,,,,,,
57373.63,0.00153,143.32,,,,,,,
57373.64,0.00151,139.88,,,,,,,
57373.64,0.00148,136.67,,,,,,,
57373.64,0.00145,133.74,,,,,,,
57373.65,0.00143,130.99,,,,,,,
57373.66,0.0014,127.91,,,,,,,
57373.66,0.00137,125.27,,,,,,,
57373.66,0.00134,123.07,,,,,,,
57373.67,0.00131,120.84,,,,,,,
57373.68,0.00129,119.32,,,,,,,
57373.68,0.00126,118.27,,,,,,,
57373.69,0.00124,117.78,,,,,,,
57373.76,0.00126,128.35,,,,,,,
57373.78,0.00129,129.08,,,,,,,
57373.84,0.00126,117.94,,,,,,,
57373.86,0.00124,113.81,,,,,,,
57373.87,0.00121,110.33,,,,,,,
57373.88,0.00119,106.96,,,,,,,
57373.9,0.00116,103.84,,,,,,,
57373.91,0.00113,100.81,,,,,,,
57373.94,0.00111,97.82,,,,,,,
57373.97,0.00108,94.35,,,,,,,
57374.0,0.00106,90.29,,,,,,,
57374.04,0.00103,86.03,,,,,,,
57374.06,0.00101,82.07,,,,,,,
57374.09,0.00098,78.31,,,,,,,
57374.11,0.00096,74.89,,,,,,,
57374.14,0.00093,71.31,,,,,,,
57374.16,0.0009,67.73,,,,,,,
57374.19,0.00088,64.12,,,,,,,
57374.22,0.00085,60.42,,,,,,,
57374.25,0.00083,56.65,,,,,,,
57374.27,0.0008,53.06,,,,,,,
57374.3,0.00078,49.18,,,,,,,
57374.32,0.00075,45.53,,,,,,,
57374.35,0.00073,41.84,,,,,,,
57374.38,0.0007,37.9,,,,,,,
57374.41,0.00068,34.1,,,,,,,
57374.43,0.00065,30.47,,,,,,,
57374.46,0.00062,26.89,,,,,,,
57374.48,0.0006,23.42,,,,,,,
57374.51,0.00057,20.21,,,,,,,
57374.54,0.00055,16.41,,,,,,,
57374.57,0.00052,12.66,,,,,,,
57374.59,0.0005,9.3,,,,,,,
57374.62,0.00047,5.33,,,,,,,
57374.65,0.00044,1.49,,,,,,,
57374.68,0.00042,-2.22,,,,,,,
57374.7,0.00039,-6.22,,,,,,,
57374.73,0.00037,-10.05,,,,,,,
57374.76,0.00034,-13.61,,,,,,,
57374.79,0.00032,-15.38,,,,,,,
57374.89,0.00029,-21.51,,,,,,,
57374.91,0.00026,-28.28,,,,,,,
57374.92,0.00024,-33.0,,,,,,,
57374.93,0.00021,-37.19,,,,,,,
57374.95,0.00019,-40.63,,,,,,,
57374.95,0.00016,-43.55,,,,,,,
57374.97,0.00013,-46.14,,,,,,,
57374.98,0.00011,-48.19,,,,,,,
57375.0,8e-05,-49.85,,,,,,,
57375.05,6e-05,-51.35,,,,,,,
57375.11,3e-05,-56.98,,,,,,,
57375.14,0.0,-61.63,,,,,,,
57375.16,-2e-05,-65.51,,,,,,,
57375.19,-5e-05,-68.86,,,,,,,
57375.21,-7e-05,-71.98,,,,,,,
57375.23,-0.0001,-75.27,,,,,,,
57375.26,-0.00012,-78.38,,,,,,,
57375.29,-0.00015,-81.53,,,,,,,
57375.32,-0.00017,-84.87,,,,,,,
57375.35,-0.0002,-88.44,,,,,,,
57375.38,-0.00022,-91.72,,,,,,,
57375.41,-0.00025,-95.08,,,,,,,
57375.43,-0.00028,-98.46,,,,,,,
57375.46,-0.0003,-101.9,,,,,,,
57375.49,-0.00033,-105.7,,,,,,,
57375.52,-0.00035,-109.3,,,,,,,
57375.55,-0.00038,-112.8,,,,,,,
57375.57,-0.0004,-116.2,,,,,,,
57375.6,-0.00043,-120.0,,,,,,,
57375.63,-0.00045,-123.6,,,,,,,
57375.65,-0.00048,-127.4,,,,,,,
57375.67,-0.0005,-130.8,,,,,,,
57375.69,-0.00053,-134.2,,,,,,,
57375.7,-0.00056,-137.6,,,,,,,
57375.73,-0.00058,-140.8,,,,,,,
57375.75,-0.00061,-143.9,,,,,,,
57375.77,-0.00063,-147.1,,,,,,,
57375.79,-0.00066,-150.4,,,,,,,
57375.81,-0.00068,-153.6,,,,,,,
57375.84,-0.00071,-157.0,,,,,,,
57375.86,-0.00073,-160.3,,,,,,,
57375.88,-0.00076,-163.6,,,,,,,
57375.91,-0.00078,-166.8,,,,,,,
57375.93,-0.00081,-169.9,,,,,,,
57375.95,-0.00084,-172.7,,,,,,,
57375.97,-0.00086,-175.2,,,,,,,
57375.99,-0.00089,-177.4,,,,,,,
57376.01,-0.00091,-179.4,,,,,,,
57376.03,-0.00094,-180.1,,,,,,,
57376.05,-0.00097,-181.0,,,,,,,
57376.06,-0.00099,-181.6,,,,,,,
57376.07,-0.00102,-182.2,,,,,,,
57376.11,-0.00104,-182.0,,,,,,,
57376.19,-0.00107,-184.8,,,,,,,
57376.22,-0.00109,-188.4,,,,,,,
57376.23,-0.00112,-189.0,,,,,,,
57376.25,-0.00115,-190.0,,,,,,,
57376.25,-0.00118,-190.5,,,,,,,
57376.25,-0.00121,-191.0,,,,,,,
57376.26,-0.00123,-191.3,,,,,,,
57376.26,-0.00127,-191.7,,,,,,,
57376.27,-0.0013,-192.0,,,,,,,
57376.27,-0.00133,-192.0,,,,,,,
57376.27,-0.00135,-191.7,,,,,,,
57376.28,-0.00138,-190.3,,,,,,,
57376.32,-0.00136,-173.5,,,,,,,
57376.33,-0.00133,-169.3,,,,,,,
57376.34,-0.0013,-165.9,,,,,,,
57376.35,-0.00128,-163.4,,,,,,,
57376.36,-0.00125,-161.4,,,,,,,
57376.38,-0.00122,-160.5,,,,,,,
57376.43,-0.00125,-174.1,,,,,,,
57376.44,-0.00128,-178.2,,,,,,,
57376.45,-0.0013,-181.8,,,,,,,
57376.46,-0.00133,-185.1,,,,,,,
57376.47,-0.00136,-187.9,,,,,,,
57376.48,-0.00138,-190.5,,,,,,,
57376.49,-0.00141,-192.6,,,,,,,
57376.51,-0.00143,-194.3,,,,,,,
57376.53,-0.00146,-195.5,,,,,,,
57376.64,-0.00143,-179.4,,,,,,,
57376.66,-0.00141,-174.8,,,,,,,
57376.68,-0.00138,-170.9,,,,,,,
57376.69,-0.00136,-167.3,,,,,,,
57376.71,-0.00133,-164.1,,,,,,,
57376.73,-0.00131,-160.9,,,,,,,
57376.75,-0.00128,-157.6,,,,,,,
57376.8,-0.00125,-152.8,,,,,,,
57376.83,-0.00123,-147.6,,,,,,,
57376.86,-0.0012,-142.9,,,,,,,
57376.88,-0.00118,-138.8,,,,,,,
57376.91,-0.00115,-135.2,,,,,,,
57376.93,-0.00113,-131.5,,,,,,,
57376.95,-0.0011,-127.9,,,,,,,
57376.98,-0.00108,-124.0,,,,,,,
57377.01,-0.00105,-120.4,,,,,,,
57377.03,-0.00103,-116.9,,,,,,,
57377.06,-0.001,-113.4,,,,,,,
57377.09,-0.00097,-110.0,,,,,,,
57377.12,-0.00095,-105.5,,,,,,,
57377.15,-0.00092,-101.0,,,,,,,
57377.18,-0.0009,-97.04,,,,,,,
57377.2,-0.00087,-93.19,,,,,,,
57377.23,-0.00085,-89.14,,,,,,,
57377.25,-0.00082,-85.2,,,,,,,
57377.27,-0.0008,-81.71,,,,,,,
57377.3,-0.00077,-78.19,,,,,,,
57377.32,-0.00075,-74.68,,,,,,,
57377.36,-0.00072,-70.54,,,,,,,
57377.39,-0.0007,-66.19,,,,,,,
57377.41,-0.00067,-62.16,,,,,,,
57377.44,-0.00064,-58.16,,,,,,,
57377.47,-0.00062,-53.71,,,,,,,
57377.5,-0.00059,-49.48,,,,,,,
57377.52,-0.00057,-45.55,,,,,,,
57377.55,-0.00054,-41.34,,,,,,,
57377.57,-0.00052,-37.03,,,,,,,
57377.6,-0.00049,-32.92,,,,,,,
57377.63,-0.00047,-28.74,,,,,,,
57377.66,-0.00044,-24.72,,,,,,,
57377.68,-0.00042,-20.62,,,,,,,
57377.71,-0.00039,-16.64,,,,,,,
57377.73,-0.00036,-12.57,,,,,,,
57377.76,-0.00034,-8.71,,,,,,,
57377.79,-0.00031,-5.28,,,,,,,
57377.81,-0.00029,-1.83,,,,,,,
57377.83,-0.00026,1.33,,,,,,,
57377.86,-0.00024,4.71,,,,,,,
57377.89,-0.00021,8.17,,,,,,,
57377.91,-0.00019,11.56,,,,,,,
57377.94,-0.00016,15.02,,,,,,,
57377.97,-0.00013,18.77,,,,,,,
57378.0,-0.00011,22.29,,,,,,,
57378.02,-8e-05,25.63,,,,,,,
57378.05,-6e-05,29.02,,,,,,,
57378.08,-3e-05,32.21,,,,,,,
57378.12,-1e-05,33.28,,,,,,,
57378.22,2e-05,44.48,,,,,,,
57378.23,5e-05,49.89,,,,,,,
57378.24,7e-05,54.21,,,,,,,
57378.25,0.0001,57.85,,,,,,,
57378.26,0.00013,60.88,,,,,,,
57378.27,0.00015,63.67,,,,,,,
57378.28,0.00018,66.08,,,,,,,
57378.29,0.0002,67.89,,,,,,,
57378.31,0.00023,69.33,,,,,,,
57378.38,0.00026,70.99,,,,,,,
57378.43,0.00028,76.65,,,,,,,
57378.45,0.00031,80.87,,,,,,,
57378.48,0.00033,84.49,,,,,,,
57378.5,0.00036,87.66,,,,,,,
57378.52,0.00038,90.78,,,,,,,
57378.54,0.00041,93.76,,,,,,,
57378.57,0.00043,96.86,,,,,,,
57378.61,0.00046,100.31,,,,,,,
57378.64,0.00048,104.09,,,,,,,
57378.67,0.00051,108.02,,,,,,,
57378.7,0.00054,111.57,,,,,,,
57378.72,0.00056,115.02,,,,,,,
57378.75,0.00059,118.27,,,,,,,
57378.77,0.00061,121.47,,,,,,,
57378.8,0.00064,124.39,,,,,,,
57378.82,0.00066,127.32,,,,,,,
57378.85,0.00069,130.22,,,,,,,
57378.88,0.00071,133.01,,,,,,,
57378.91,0.00074,135.69,,,,,,,
57378.93,0.00077,138.58,,,,,,,
57378.97,0.00079,142.09,,,,,,,
57379.0,0.00082,145.82,,,,,,,
57379.02,0.00084,149.58,,,,,,,
57379.05,0.00087,153.62,,,,,,,
57379.07,0.00089,157.52,,,,,,,
57379.09,0.00092,160.95,,,,,,,
57379.11,0.00094,164.31,,,,,,,
57379.13,0.00097,167.41,,,,,,,
57379.14,0.00099,170.25,,,,,,,
57379.16,0.00102,173.03,,,,,,,
57379.19,0.00105,175.9,,,,,,,
57379.21,0.00107,178.55,,,,,,,
57379.23,0.0011,181.32,,,,,,,
57379.25,0.00112,184.21,,,,,,,
57379.28,0.00115,187.05,,,,,,,
57379.3,0.00117,189.81,,,,,,,
57379.32,0.0012,192.25,,,,,,,
57379.34,0.00122,193.78,,,,,,,
57379.36,0.00125,194.55,,,,,,,
57379.36,0.00128,194.9,,,,,,,
57379.37,0.00131,195.18,,,,,,,
57379.38,0.00134,195.51,,,,,,,
57379.38,0.00136,195.64,,,,,,,
57379.39,0.00139,195.62,,,,,,,
57379.39,0.00141,195.17,,,,,,,
57379.41,0.00144,193.51,,,,,,,
57379.45,0.00141,181.87,,,,,,,
57379.46,0.00139,178.62,,,,,,,
57379.48,0.00136,176.49,,,,,,,
57379.5,0.00134,176.65,,,,,,,
60071.48,0.00147,199.91,,,,,,,
60071.48,0.0015,200.4,,,,,,,
60071.49,0.00152,200.71,,,,,,,
60071.5,0.00155,200.77,,,,,,,
60071.5,0.00158,200.48,,,,,,,
60071.52,0.0016,199.14,,,,,,,
60071.56,0.00158,180.17,,,,,,,
60071.56,0.00155,174.83,,,,,,,
60071.57,0.00152,170.16,,,,,,,
60071.58,0.00149,166.26,,,,,,,
60071.59,0.00147,162.59,,,,,,,
60071.59,0.00144,159.3,,,,,,,
60071.6,0.00141,156.31,,,,,,,
60071.61,0.00139,153.28,,,,,,,
60071.61,0.00136,150.89,,,,,,,
60071.63,0.00133,148.57,,,,,,,
60071.64,0.00131,146.61,,,,,,,
60071.65,0.00128,145.33,,,,,,,
60071.77,0.00126,138.74,,,,,,,
60071.8,0.00123,133.62,,,,,,,
60071.82,0.00121,129.45,,,,,,,
60071.84,0.00118,125.58,,,,,,,
60071.86,0.00116,121.96,,,,,,,
60071.88,0.00113,118.46,,,,,,,
60071.9,0.0011,114.93,,,,,,,
60071.93,0.00108,110.95,,,,,,,
60071.96,0.00105,107.08,,,,,,,
60071.99,0.00103,103.21,,,,,,,
60072.02,0.001,99.06,,,,,,,
60072.04,0.00098,95.12,,,,,,,
60072.07,0.00095,91.2,,,,,,,
60072.09,0.00093,87.33,,,,,,,
60072.12,0.0009,83.53,,,,,,,
60072.15,0.00087,79.74,,,,,,,
60072.18,0.00085,75.84,,,,,,,
60072.2,0.00082,71.89,,,,,,,
60072.23,0.0008,68.02,,,,,,,
60072.26,0.00077,64.23,,,,,,,
60072.28,0.00075,60.49,,,,,,,
60072.31,0.00072,56.63,,,,,,,
60072.34,0.0007,52.76,,,,,,,
60072.36,0.00067,48.78,,,,,,,
60072.39,0.00065,44.98,,,,,,,
60072.42,0.00062,41.04,,,,,,,
60072.45,0.00059,37.01,,,,,,,
60072.47,0.00057,33.18,,,,,,,
60072.5,0.00054,29.41,,,,,,,
60072.52,0.00052,25.37,,,,,,,
60072.55,0.00049,21.49,,,,,,,
60072.58,0.00047,17.48,,,,,,,
60072.61,0.00044,13.57,,,,,,,
60072.63,0.00042,9.81,,,,,,,
60072.66,0.00039,5.87,,,,,,,
60072.68,0.00036,2.14,,,,,,,
60072.71,0.00034,-1.31,,,,,,,
60072.74,0.00031,-5.12,,,,,,,
60072.77,0.00029,-9.07,,,,,,,
60072.8,0.00026,-13.04,,,,,,,
60072.83,0.00024,-15.82,,,,,,,
60072.93,0.00021,-24.15,,,,,,,
60072.95,0.00019,-30.61,,,,,,,
60072.96,0.00016,-35.35,,,,,,,
60072.97,0.00013,-39.29,,,,,,,
60072.98,0.00011,-42.59,,,,,,,
60072.99,8e-05,-45.78,,,,,,,
60073.01,5e-05,-48.4,,,,,,,
60073.02,3e-05,-50.5,,,,,,,
60073.04,0.0,-52.28,,,,,,,
60073.09,-2e-05,-53.85,,,,,,,
60073.15,-5e-05,-60.03,,,,,,,
60073.18,-7e-05,-64.61,,,,,,,
60073.2,-0.0001,-68.55,,,,,,,
60073.23,-0.00013,-72.08,,,,,,,
60073.25,-0.00015,-75.25,,,,,,,
60073.27,-0.00018,-78.3,,,,,,,
60073.3,-0.0002,-81.17,,,,,,,
60073.33,-0.00023,-84.16,,,,,,,
60073.36,-0.00025,-87.43,,,,,,,
60073.39,-0.00028,-90.89,,,,,,,
60073.42,-0.0003,-94.35,,,,,,,
60073.45,-0.00033,-97.98,,,,,,,
60073.48,-0.00036,-101.5,,,,,,,
60073.5,-0.00038,-104.9,,,,,,,
60073.53,-0.00041,-108.2,,,,,,,
60073.56,-0.00043,-111.5,,,,,,,
60073.58,-0.00046,-114.7,,,,,,,
60073.61,-0.00048,-117.9,,,,,,,
60073.63,-0.00051,-121.1,,,,,,,
60073.66,-0.00053,-124.6,,,,,,,
60073.68,-0.00056,-128.5,,,,,,,
60073.7,-0.00058,-132.1,,,,,,,
60073.72,-0.00061,-135.3,,,,,,,
60073.74,-0.00064,-138.7,,,,,,,
60073.76,-0.00066,-141.9,,,,,,,
60073.78,-0.00069,-145.1,,,,,,,
60073.8,-0.00071,-148.3,,,,,,,
60073.82,-0.00074,-151.4,,,,,,,
60073.84,-0.00076,-154.2,,,,,,,
60073.87,-0.00079,-157.1,,,,,,,
60073.89,-0.00082,-160.2,,,,,,,
60073.91,-0.00084,-163.3,,,,,,,
60073.94,-0.00087,-166.2,,,,,,,
60073.96,-0.00089,-169.2,,,,,,,
60073.98,-0.00092,-171.9,,,,,,,
60074.01,-0.00094,-174.6,,,,,,,
60074.04,-0.00097,-177.4,,,,,,,
60074.06,-0.00099,-180.0,,,,,,,
60074.08,-0.00102,-182.1,,,,,,,
60074.11,-0.00105,-184.0,,,,,,,
60074.12,-0.00107,-185.2,,,,,,,
60074.13,-0.0011,-186.0,,,,,,,
60074.14,-0.00113,-186.6,,,,,,,
60074.16,-0.00115,-186.9,,,,,,,
60074.17,-0.00118,-186.6,,,,,,,
60074.29,-0.0012,-185.6,,,,,,,
60074.31,-0.00123,-189.6,,,,,,,
60074.33,-0.00125,-193.1,,,,,,,
60074.35,-0.00128,-195.9,,,,,,,
60074.37,-0.00131,-196.5,,,,,,,
60074.37,-0.00133,-197.2,,,,,,,
60074.38,-0.00136,-197.8,,,,,,,
60074.38,-0.00139,-198.1,,,,,,,
60074.38,-0.00142,-198.5,,,,,,,
60074.39,-0.00144,-198.6,,,,,,,
60074.39,-0.00147,-198.5,,,,,,,
60074.4,-0.0015,-197.9,,,,,,,
60074.42,-0.00152,-195.4,,,,,,,
60074.45,-0.0015,-183.8,,,,,,,
60074.47,-0.00147,-179.8,,,,,,,
60074.48,-0.00144,-177.0,,,,,,,
60074.49,-0.00142,-175.1,,,,,,,
60074.52,-0.00139,-175.4,,,,,,,
60074.57,-0.00142,-177.7,,,,,,,
60074.64,-0.00139,-167.0,,,,,,,
60074.66,-0.00137,-162.6,,,,,,,
60074.68,-0.00134,-158.6,,,,,,,
60074.69,-0.00132,-154.9,,,,,,,
60074.71,-0.00129,-151.4,,,,,,,
60074.73,-0.00126,-148.0,,,,,,,
60074.75,-0.00124,-144.6,,,,,,,
60074.79,-0.00121,-140.7,,,,,,,
60074.82,-0.00119,-136.0,,,,,,,
60074.86,-0.00116,-131.3,,,,,,,
60074.88,-0.00114,-126.9,,,,,,,
60074.91,-0.00111,-122.7,,,,,,,
60074.93,-0.00109,-118.8,,,,,,,
60074.96,-0.00106,-114.8,,,,,,,
60074.98,-0.00104,-111.0,,,,,,,
60075.01,-0.00101,-107.1,,,,,,,
60075.04,-0.00098,-103.2,,,,,,,
60075.06,-0.00096,-99.05,,,,,,,
60075.09,-0.00093,-94.82,,,,,,,
60075.12,-0.00091,-90.67,,,,,,,
60075.15,-0.00088,-86.32,,,,,,,
60075.18,-0.00086,-81.74,,,,,,,
60075.2,-0.00083,-77.62,,,,,,,
60075.23,-0.00081,-73.33,,,,,,,
60075.25,-0.00078,-69.06,,,,,,,
60075.28,-0.00075,-65.06,,,,,,,
60075.31,-0.00073,-61.07,,,,,,,
60075.33,-0.0007,-56.9,,,,,,,
60075.36,-0.00068,-52.89,,,,,,,
60075.39,-0.00065,-48.83,,,,,,,
60075.41,-0.00063,-44.64,,,,,,,
60075.45,-0.0006,-40.33,,,,,,,
60075.47,-0.00058,-36.26,,,,,,,
60075.5,-0.00055,-31.9,,,,,,,
60075.52,-0.00053,-27.62,,,,,,,
60075.55,-0.0005,-23.47,,,,,,,
60075.58,-0.00047,-19.3,,,,,,,
60075.6,-0.00045,-15.26,,,,,,,
60075.63,-0.00042,-11.51,,,,,,,
60075.65,-0.0004,-7.73,,,,,,,
60075.68,-0.00037,-3.74,,,,,,,
60075.71,-0.00035,0.24,,,,,,,
60075.73,-0.00032,4.34,,,,,,,
60075.76,-0.0003,8.32,,,,,,,
60075.79,-0.00027,12.28,,,,,,,
60075.82,-0.00025,16.17,,,,,,,
60075.84,-0.00022,20.2,,,,,,,
60075.87,-0.0002,23.87,,,,,,,
60075.89,-0.00017,27.77,,,,,,,
60075.92,-0.00014,31.57,,,,,,,
60075.95,-0.00012,34.71,,,,,,,
60076.07,-9e-05,42.16,,,,,,,
60076.08,-7e-05,48.35,,,,,,,
60076.09,-4e-05,52.94,,,,,,,
60076.1,-1e-05,56.73,,,,,,,
60076.11,1e-05,60.25,,,,,,,
60076.12,4e-05,63.34,,,,,,,
60076.13,7e-05,66.02,,,,,,,
60076.14,9e-05,68.31,,,,,,,
60076.16,0.00012,70.15,,,,,,,
60076.18,0.00014,71.42,,,,,,,
60076.27,0.00017,75.45,,,,,,,
60076.29,0.00019,79.56,,,,,,,
60076.32,0.00022,83.34,,,,,,,
60076.34,0.00025,86.82,,,,,,,
60076.37,0.00027,90.07,,,,,,,
60076.39,0.0003,93.22,,,,,,,
60076.41,0.00032,96.22,,,,,,,
60076.45,0.00035,99.33,,,,,,,
60076.47,0.00037,102.32,,,,,,,
60076.5,0.0004,105.24,,,,,,,
60076.53,0.00042,108.2,,,,,,,
60076.56,0.00045,111.26,,,,,,,
60076.59,0.00047,114.77,,,,,,,
60076.62,0.0005,118.53,,,,,,,
60076.65,0.00053,122.17,,,,,,,
60076.68,0.00055,125.65,,,,,,,
60076.7,0.00058,129.12,,,,,,,
60076.73,0.0006,132.34,,,,,,,
60076.75,0.00063,135.62,,,,,,,
60076.78,0.00065,138.84,,,,,,,
60076.81,0.00068,141.83,,,,,,,
60076.84,0.0007,145.08,,,,,,,
60076.86,0.00073,148.29,,,,,,,
60076.89,0.00076,151.79,,,,,,,
60076.91,0.00078,155.3,,,,,,,
60076.93,0.00081,158.65,,,,,,,
60076.95,0.00083,161.8,,,,,,,
60076.97,0.00086,164.93,,,,,,,
60076.99,0.00088,168.05,,,,,,,
60077.01,0.00091,170.91,,,,,,,
60077.03,0.00093,173.7,,,,,,,
60077.05,0.00096,176.3,,,,,,,
60077.07,0.00099,178.72,,,,,,,
60077.09,0.00101,180.96,,,,,,,
60077.12,0.00104,183.3,,,,,,,
60077.14,0.00106,185.26,,,,,,,
60077.16,0.00109,186.81,,,,,,,
60077.17,0.00112,187.99,,,,,,,
60077.19,0.00114,188.7,,,,,,,
60077.2,0.00117,189.13,,,,,,,
60077.22,0.00119,189.37,,,,,,,
60077.23,0.00122,189.21,,,,,,,
60077.35,0.00125,189.39,,,,,,,
60077.37,0.00127,193.57,,,,,,,
60077.39,0.0013,196.84,,,,,,,
60077.41,0.00132,198.04,,,,,,,
60077.41,0.00135,198.69,,,,,,,
60077.42,0.00138,199.28,,,,,,,
60077.42,0.00141,199.65,,,,,,,
60077.43,0.00144,200.01,,,,,,,
60077.43,0.00147,200.27,,,,,,,
60077.44,0.00149,200.33,,,,,,,
60077.44,0.00152,200.13,,,,,,,
60077.45,0.00155,199.59,,,,,,,
60077.46,0.00157,197.42,,,,,,,
