time,strain,stress,temperature,type,strain_rate,max_strain,title,youngs,poissons
0.0,2e-05,6.47,850,fatigue,0.001,0.0019,43-13,153000,0.3
0.02,5e-05,11.46,,,,,,,
0.04,7e-05,15.5,,,,,,,
0.05,0.0001,19.05,,,,,,,
0.07,0.00013,22.05,,,,,,,
0.1,0.00015,24.35,,,,,,,
0.17,0.00018,27.52,,,,,,,
0.22,0.0002,33.63,,,,,,,
0.24,0.00023,38.55,,,,,,,
0.26,0.00025,42.96,,,,,,,
0.28,0.00028,48.02,,,,,,,
0.29,0.0003,52.73,,,,,,,
0.3,0.00033,56.32,,,,,,,
0.32,0.00036,59.45,,,,,,,
0.33,0.00038,62.19,,,,,,,
0.35,0.00041,64.34,,,,,,,
0.37,0.00043,65.99,,,,,,,
0.46,0.00046,70.61,,,,,,,
0.49,0.00048,75.78,,,,,,,
0.51,0.00051,80.05,,,,,,,
0.53,0.00054,83.92,,,,,,,
0.55,0.00056,87.26,,,,,,,
0.58,0.00059,90.55,,,,,,,
0.6,0.00061,93.98,,,,,,,
0.64,0.00064,97.56,,,,,,,
0.67,0.00066,101.49,,,,,,,
0.7,0.00069,105.61,,,,,,,
0.73,0.00071,109.52,,,,,,,
0.75,0.00074,113.46,,,,,,,
0.78,0.00076,117.31,,,,,,,
0.81,0.00079,121.04,,,,,,,
0.83,0.00082,124.91,,,,,,,
0.86,0.00084,128.8,,,,,,,
0.89,0.00087,132.68,,,,,,,
0.92,0.00089,136.69,,,,,,,
0.95,0.00092,139.14,,,,,,,
1.02,0.00089,128.1,,,,,,,
1.04,0.00087,124.17,,,,,,,
1.06,0.00084,120.76,,,,,,,
1.07,0.00082,117.75,,,,,,,
1.09,0.00079,115.03,,,,,,,
1.12,0.00076,112.54,,,,,,,
1.17,0.00074,109.18,,,,,,,
1.21,0.00071,104.59,,,,,,,
1.25,0.00069,99.62,,,,,,,
1.28,0.00066,94.99,,,,,,,
1.3,0.00064,91.18,,,,,,,
1.32,0.00061,87.76,,,,,,,
1.34,0.00059,84.18,,,,,,,
1.37,0.00056,80.56,,,,,,,
1.4,0.00054,76.92,,,,,,,
1.43,0.00051,73.26,,,,,,,
1.46,0.00048,69.35,,,,,,,
1.49,0.00046,65.26,,,,,,,
1.51,0.00043,61.21,,,,,,,
1.54,0.00041,57.64,,,,,,,
1.56,0.00038,54.13,,,,,,,
1.59,0.00036,50.46,,,,,,,
1.62,0.00033,46.3,,,,,,,
1.65,0.00031,42.24,,,,,,,
1.67,0.00028,38.35,,,,,,,
1.7,0.00025,34.43,,,,,,,
1.72,0.00023,30.65,,,,,,,
1.75,0.0002,26.62,,,,,,,
1.78,0.00018,22.74,,,,,,,
1.81,0.00015,19.05,,,,,,,
1.83,0.00013,15.38,,,,,,,
1.86,0.0001,11.76,,,,,,,
1.88,8e-05,8.14,,,,,,,
1.91,5e-05,4.53,,,,,,,
1.94,3e-05,0.99,,,,,,,
1.96,-0.0,-2.73,,,,,,,
1.99,-3e-05,-6.23,,,,,,,
2.02,-5e-05,-9.81,,,,,,,
2.05,-8e-05,-13.42,,,,,,,
2.08,-0.0001,-15.11,,,,,,,
2.19,-0.00013,-21.58,,,,,,,
2.22,-0.00015,-26.65,,,,,,,
2.24,-0.00018,-31.63,,,,,,,
2.25,-0.00021,-37.26,,,,,,,
2.27,-0.00023,-42.63,,,,,,,
2.28,-0.00026,-46.96,,,,,,,
2.29,-0.00028,-50.48,,,,,,,
2.3,-0.00031,-53.49,,,,,,,
2.31,-0.00033,-56.09,,,,,,,
2.32,-0.00036,-58.17,,,,,,,
2.34,-0.00039,-59.98,,,,,,,
2.37,-0.00041,-61.16,,,,,,,
2.45,-0.00044,-67.27,,,,,,,
2.48,-0.00046,-72.13,,,,,,,
2.5,-0.00049,-76.09,,,,,,,
2.52,-0.00051,-79.78,,,,,,,
2.54,-0.00054,-83.57,,,,,,,
2.57,-0.00056,-86.8,,,,,,,
2.6,-0.00059,-90.31,,,,,,,
2.63,-0.00061,-94.48,,,,,,,
2.66,-0.00064,-99.0,,,,,,,
2.69,-0.00066,-103.5,,,,,,,
2.71,-0.00069,-108.1,,,,,,,
2.73,-0.00071,-112.3,,,,,,,
2.75,-0.00074,-116.2,,,,,,,
2.77,-0.00077,-120.1,,,,,,,
2.79,-0.00079,-123.7,,,,,,,
2.81,-0.00082,-127.2,,,,,,,
2.83,-0.00084,-130.7,,,,,,,
2.86,-0.00087,-134.1,,,,,,,
2.88,-0.0009,-137.6,,,,,,,
2.91,-0.00092,-141.7,,,,,,,
2.94,-0.00095,-145.2,,,,,,,
2.97,-0.00097,-145.7,,,,,,,
3.02,-0.00095,-134.9,,,,,,,
3.04,-0.00092,-129.9,,,,,,,
3.05,-0.00089,-125.7,,,,,,,
3.06,-0.00087,-122.3,,,,,,,
3.08,-0.00084,-119.2,,,,,,,
3.09,-0.00081,-116.3,,,,,,,
3.11,-0.00079,-113.7,,,,,,,
3.15,-0.00076,-111.0,,,,,,,
3.2,-0.00074,-105.6,,,,,,,
3.24,-0.00071,-100.3,,,,,,,
3.26,-0.00069,-96.01,,,,,,,
3.28,-0.00066,-91.8,,,,,,,
3.3,-0.00064,-87.91,,,,,,,
3.32,-0.00061,-84.04,,,,,,,
3.35,-0.00059,-80.5,,,,,,,
3.37,-0.00056,-77.05,,,,,,,
3.4,-0.00053,-73.39,,,,,,,
3.43,-0.00051,-69.51,,,,,,,
3.46,-0.00048,-65.52,,,,,,,
3.49,-0.00046,-60.94,,,,,,,
3.52,-0.00043,-56.26,,,,,,,
3.55,-0.00041,-51.98,,,,,,,
3.57,-0.00038,-48.05,,,,,,,
3.59,-0.00036,-44.33,,,,,,,
3.62,-0.00033,-40.48,,,,,,,
3.65,-0.0003,-36.64,,,,,,,
3.67,-0.00028,-32.74,,,,,,,
3.7,-0.00025,-28.73,,,,,,,
3.73,-0.00023,-25.0,,,,,,,
3.75,-0.0002,-21.2,,,,,,,
3.78,-0.00018,-17.45,,,,,,,
3.81,-0.00015,-13.76,,,,,,,
3.84,-0.00013,-9.79,,,,,,,
3.87,-0.0001,-5.82,,,,,,,
3.89,-7e-05,-1.6,,,,,,,
3.92,-5e-05,2.27,,,,,,,
3.94,-2e-05,5.78,,,,,,,
3.97,0.0,9.28,,,,,,,
4.0,3e-05,13.2,,,,,,,
4.04,5e-05,17.71,,,,,,,
4.07,8e-05,22.32,,,,,,,
4.09,0.0001,26.72,,,,,,,
4.12,0.00013,31.13,,,,,,,
4.14,0.00015,34.16,,,,,,,
4.26,0.00018,39.12,,,,,,,
4.29,0.0002,45.44,,,,,,,
4.31,0.00023,51.29,,,,,,,
4.32,0.00026,56.62,,,,,,,
4.33,0.00028,62.27,,,,,,,
4.34,0.00031,66.58,,,,,,,
4.35,0.00033,70.11,,,,,,,
4.36,0.00036,73.25,,,,,,,
4.37,0.00039,76.1,,,,,,,
4.38,0.00041,78.54,,,,,,,
4.39,0.00044,80.47,,,,,,,
4.42,0.00046,81.64,,,,,,,
4.53,0.00049,88.34,,,,,,,
4.55,0.00052,93.74,,,,,,,
4.57,0.00054,98.02,,,,,,,
4.59,0.00057,101.55,,,,,,,
4.61,0.00059,104.94,,,,,,,
4.63,0.00062,108.04,,,,,,,
4.65,0.00064,110.93,,,,,,,
4.68,0.00067,114.34,,,,,,,
4.72,0.00069,118.55,,,,,,,
4.75,0.00072,123.21,,,,,,,
4.78,0.00074,127.71,,,,,,,
4.8,0.00077,132.08,,,,,,,
4.83,0.0008,136.16,,,,,,,
4.85,0.00082,139.92,,,,,,,
4.88,0.00085,143.52,,,,,,,
4.91,0.00087,147.34,,,,,,,
4.93,0.0009,151.42,,,,,,,
4.95,0.00092,155.26,,,,,,,
4.97,0.00095,158.95,,,,,,,
5.0,0.00098,162.48,,,,,,,
5.02,0.001,165.53,,,,,,,
5.03,0.00103,167.33,,,,,,,
5.05,0.00105,167.95,,,,,,,
5.06,0.00108,167.86,,,,,,,
5.07,0.0011,167.33,,,,,,,
5.07,0.00113,166.28,,,,,,,
5.09,0.00115,162.92,,,,,,,
5.12,0.00113,148.17,,,,,,,
5.13,0.0011,142.75,,,,,,,
5.13,0.00107,138.02,,,,,,,
5.14,0.00105,134.06,,,,,,,
5.15,0.00102,130.32,,,,,,,
5.15,0.00099,127.02,,,,,,,
5.16,0.00097,124.14,,,,,,,
5.17,0.00094,121.6,,,,,,,
5.18,0.00091,119.34,,,,,,,
5.18,0.00089,117.56,,,,,,,
5.2,0.00086,116.29,,,,,,,
5.22,0.00084,116.7,,,,,,,
5.28,0.00086,121.61,,,,,,,
5.34,0.00084,111.68,,,,,,,
5.36,0.00081,107.38,,,,,,,
5.37,0.00079,103.69,,,,,,,
5.39,0.00076,100.26,,,,,,,
5.4,0.00074,97.2,,,,,,,
5.42,0.00071,94.1,,,,,,,
5.45,0.00068,91.03,,,,,,,
5.48,0.00066,87.5,,,,,,,
5.52,0.00063,82.86,,,,,,,
5.55,0.00061,77.77,,,,,,,
5.58,0.00058,72.94,,,,,,,
5.61,0.00056,68.76,,,,,,,
5.63,0.00053,64.5,,,,,,,
5.66,0.00051,60.07,,,,,,,
5.69,0.00048,55.84,,,,,,,
5.71,0.00046,51.84,,,,,,,
5.73,0.00043,47.91,,,,,,,
5.76,0.0004,43.93,,,,,,,
5.79,0.00038,40.07,,,,,,,
5.82,0.00035,35.96,,,,,,,
5.84,0.00033,32.04,,,,,,,
5.87,0.0003,28.12,,,,,,,
5.9,0.00028,24.16,,,,,,,
5.92,0.00025,20.22,,,,,,,
5.95,0.00023,16.14,,,,,,,
5.98,0.0002,12.05,,,,,,,
6.01,0.00017,8.33,,,,,,,
6.03,0.00015,4.43,,,,,,,
6.06,0.00012,0.36,,,,,,,
6.09,0.0001,-3.86,,,,,,,
6.12,7e-05,-7.94,,,,,,,
6.14,5e-05,-12.06,,,,,,,
6.17,2e-05,-15.77,,,,,,,
6.2,-0.0,-17.07,,,,,,,
6.31,-3e-05,-23.8,,,,,,,
6.33,-6e-05,-29.51,,,,,,,
6.34,-8e-05,-34.06,,,,,,,
6.36,-0.00011,-37.96,,,,,,,
6.37,-0.00013,-42.93,,,,,,,
6.38,-0.00016,-47.24,,,,,,,
6.39,-0.00019,-50.63,,,,,,,
6.4,-0.00021,-53.46,,,,,,,
6.42,-0.00024,-55.95,,,,,,,
6.43,-0.00026,-58.04,,,,,,,
6.46,-0.00029,-59.62,,,,,,,
6.55,-0.00031,-66.84,,,,,,,
6.57,-0.00034,-71.92,,,,,,,
6.59,-0.00036,-76.32,,,,,,,
6.62,-0.00039,-80.14,,,,,,,
6.64,-0.00042,-83.54,,,,,,,
6.66,-0.00044,-86.7,,,,,,,
6.69,-0.00047,-90.64,,,,,,,
6.72,-0.00049,-94.93,,,,,,,
6.76,-0.00052,-99.43,,,,,,,
6.78,-0.00054,-103.8,,,,,,,
6.81,-0.00057,-107.8,,,,,,,
6.83,-0.00059,-111.4,,,,,,,
6.85,-0.00062,-115.0,,,,,,,
6.87,-0.00065,-118.6,,,,,,,
6.89,-0.00067,-121.9,,,,,,,
6.91,-0.0007,-125.0,,,,,,,
6.93,-0.00072,-127.7,,,,,,,
6.95,-0.00075,-129.9,,,,,,,
6.97,-0.00077,-132.4,,,,,,,
7.0,-0.0008,-135.7,,,,,,,
7.03,-0.00083,-139.4,,,,,,,
7.05,-0.00085,-142.5,,,,,,,
7.07,-0.00088,-145.1,,,,,,,
7.09,-0.0009,-147.3,,,,,,,
7.1,-0.00093,-149.4,,,,,,,
7.12,-0.00095,-151.0,,,,,,,
7.15,-0.00098,-152.6,,,,,,,
7.19,-0.001,-155.2,,,,,,,
7.23,-0.00103,-159.9,,,,,,,
7.26,-0.00106,-161.9,,,,,,,
7.28,-0.00108,-161.8,,,,,,,
7.3,-0.00111,-159.4,,,,,,,
7.33,-0.00108,-146.9,,,,,,,
7.34,-0.00106,-142.0,,,,,,,
7.35,-0.00103,-137.7,,,,,,,
7.36,-0.001,-134.0,,,,,,,
7.37,-0.00098,-130.7,,,,,,,
7.38,-0.00095,-127.8,,,,,,,
7.39,-0.00093,-125.2,,,,,,,
7.4,-0.0009,-122.8,,,,,,,
7.42,-0.00087,-121.0,,,,,,,
7.44,-0.00085,-120.2,,,,,,,
7.55,-0.00082,-112.9,,,,,,,
7.57,-0.0008,-108.3,,,,,,,
7.58,-0.00077,-104.4,,,,,,,
7.6,-0.00075,-100.9,,,,,,,
7.62,-0.00072,-97.58,,,,,,,
7.64,-0.0007,-94.54,,,,,,,
7.67,-0.00067,-91.42,,,,,,,
7.7,-0.00065,-87.74,,,,,,,
7.73,-0.00062,-83.65,,,,,,,
7.76,-0.00059,-79.57,,,,,,,
7.79,-0.00057,-75.71,,,,,,,
7.81,-0.00054,-71.72,,,,,,,
7.84,-0.00052,-67.81,,,,,,,
7.87,-0.00049,-63.72,,,,,,,
7.9,-0.00047,-59.83,,,,,,,
7.92,-0.00044,-55.81,,,,,,,
7.95,-0.00041,-51.8,,,,,,,
7.97,-0.00039,-48.02,,,,,,,
8.0,-0.00036,-44.23,,,,,,,
8.03,-0.00034,-40.45,,,,,,,
8.05,-0.00031,-36.67,,,,,,,
8.08,-0.00029,-32.69,,,,,,,
8.11,-0.00026,-28.64,,,,,,,
8.13,-0.00024,-24.81,,,,,,,
8.16,-0.00021,-20.84,,,,,,,
8.19,-0.00019,-16.4,,,,,,,
8.21,-0.00016,-12.35,,,,,,,
8.24,-0.00013,-8.64,,,,,,,
8.26,-0.00011,-4.84,,,,,,,
8.29,-8e-05,-1.03,,,,,,,
8.32,-6e-05,2.79,,,,,,,
18.43,-4e-05,79.67,,,,,,,
18.45,-2e-05,85.1,,,,,,,
18.47,1e-05,89.28,,,,,,,
18.49,3e-05,92.92,,,,,,,
18.51,6e-05,96.11,,,,,,,
18.53,8e-05,98.93,,,,,,,
18.55,0.00011,102.15,,,,,,,
18.59,0.00014,105.73,,,,,,,
18.62,0.00016,109.79,,,,,,,
18.65,0.00019,114.05,,,,,,,
18.68,0.00021,117.9,,,,,,,
18.7,0.00024,121.25,,,,,,,
18.73,0.00026,124.32,,,,,,,
18.75,0.00029,126.81,,,,,,,
18.77,0.00031,128.7,,,,,,,
18.79,0.00034,130.33,,,,,,,
18.82,0.00036,132.07,,,,,,,
18.85,0.00039,134.21,,,,,,,
18.88,0.00042,136.42,,,,,,,
18.9,0.00044,138.38,,,,,,,
18.92,0.00047,139.94,,,,,,,
18.94,0.00049,141.01,,,,,,,
18.95,0.00052,141.73,,,,,,,
18.96,0.00054,142.31,,,,,,,
18.98,0.00057,142.68,,,,,,,
19.0,0.00059,142.47,,,,,,,
19.09,0.00062,146.37,,,,,,,
19.11,0.00065,150.5,,,,,,,
19.13,0.00067,151.66,,,,,,,
19.14,0.0007,152.49,,,,,,,
19.14,0.00073,153.29,,,,,,,
19.15,0.00075,153.97,,,,,,,
19.15,0.00078,154.56,,,,,,,
19.15,0.00081,155.04,,,,,,,
19.16,0.00084,155.38,,,,,,,
19.16,0.00087,155.55,,,,,,,
19.17,0.00089,155.45,,,,,,,
19.17,0.00092,154.8,,,,,,,
19.19,0.00094,151.84,,,,,,,
19.21,0.00092,138.76,,,,,,,
19.22,0.00089,134.18,,,,,,,
19.23,0.00086,130.54,,,,,,,
19.24,0.00084,128.03,,,,,,,
19.25,0.00081,126.03,,,,,,,
19.26,0.00079,125.06,,,,,,,
19.28,0.00076,127.11,,,,,,,
19.31,0.00079,138.97,,,,,,,
19.32,0.00081,144.34,,,,,,,
19.33,0.00084,148.65,,,,,,,
19.34,0.00086,152.31,,,,,,,
19.34,0.00089,155.71,,,,,,,
19.35,0.00092,158.6,,,,,,,
19.36,0.00094,161.06,,,,,,,
19.37,0.00097,163.17,,,,,,,
19.38,0.00099,164.6,,,,,,,
19.39,0.00102,164.78,,,,,,,
19.4,0.00105,163.98,,,,,,,
19.41,0.00108,163.46,,,,,,,
19.41,0.0011,163.08,,,,,,,
19.42,0.00113,162.56,,,,,,,
19.42,0.00116,161.82,,,,,,,
19.43,0.00119,160.1,,,,,,,
19.47,0.00116,143.29,,,,,,,
19.48,0.00113,139.4,,,,,,,
19.49,0.00111,136.11,,,,,,,
19.5,0.00108,133.72,,,,,,,
19.51,0.00105,132.17,,,,,,,
19.52,0.00103,132.2,,,,,,,
19.57,0.00105,148.25,,,,,,,
19.58,0.00108,153.05,,,,,,,
19.58,0.00111,157.28,,,,,,,
19.59,0.00113,160.78,,,,,,,
19.6,0.00116,163.83,,,,,,,
19.61,0.00118,166.59,,,,,,,
19.62,0.00121,169.03,,,,,,,
19.63,0.00123,171.02,,,,,,,
19.64,0.00126,171.32,,,,,,,
19.65,0.00129,170.43,,,,,,,
19.65,0.00131,170.42,,,,,,,
19.66,0.00134,170.39,,,,,,,
19.66,0.00138,170.3,,,,,,,
19.66,0.00141,170.06,,,,,,,
19.67,0.00144,169.71,,,,,,,
19.67,0.00147,169.01,,,,,,,
19.68,0.00149,167.49,,,,,,,
19.71,0.00147,146.12,,,,,,,
19.72,0.00144,141.52,,,,,,,
19.73,0.00141,137.91,,,,,,,
19.73,0.00139,134.68,,,,,,,
19.74,0.00136,131.78,,,,,,,
19.74,0.00133,129.53,,,,,,,
19.75,0.00131,127.6,,,,,,,
19.76,0.00128,126.44,,,,,,,
19.77,0.00125,126.57,,,,,,,
19.82,0.00128,142.39,,,,,,,
19.83,0.0013,145.55,,,,,,,
19.84,0.00133,147.91,,,,,,,
19.85,0.00136,149.35,,,,,,,
19.86,0.00138,149.21,,,,,,,
19.87,0.00139,147.78,,,,,,,
19.91,0.00135,134.03,,,,,,,
19.92,0.00133,129.11,,,,,,,
19.93,0.0013,124.9,,,,,,,
19.94,0.00127,121.3,,,,,,,
19.95,0.00125,118.13,,,,,,,
19.96,0.00122,115.03,,,,,,,
19.97,0.00119,112.41,,,,,,,
19.98,0.00117,110.25,,,,,,,
20.0,0.00114,108.49,,,,,,,
20.09,0.00112,105.3,,,,,,,
20.12,0.00109,99.03,,,,,,,
20.15,0.00107,94.27,,,,,,,
20.16,0.00104,90.31,,,,,,,
20.18,0.00102,86.68,,,,,,,
20.2,0.00099,83.22,,,,,,,
20.23,0.00096,79.83,,,,,,,
20.25,0.00094,76.21,,,,,,,
20.28,0.00091,72.73,,,,,,,
20.32,0.00089,68.59,,,,,,,
20.35,0.00086,64.3,,,,,,,
20.37,0.00084,59.98,,,,,,,
20.4,0.00081,56.13,,,,,,,
20.42,0.00079,52.33,,,,,,,
20.44,0.00076,48.67,,,,,,,
20.47,0.00074,44.94,,,,,,,
20.5,0.00071,40.96,,,,,,,
20.53,0.00068,36.9,,,,,,,
20.55,0.00066,33.03,,,,,,,
20.58,0.00063,29.17,,,,,,,
20.61,0.00061,25.16,,,,,,,
20.64,0.00058,20.98,,,,,,,
20.66,0.00056,17.18,,,,,,,
20.69,0.00053,13.55,,,,,,,
20.71,0.00051,9.91,,,,,,,
20.74,0.00048,6.05,,,,,,,
20.77,0.00045,2.25,,,,,,,
20.79,0.00043,-1.61,,,,,,,
20.82,0.0004,-5.6,,,,,,,
20.85,0.00038,-9.18,,,,,,,
20.88,0.00035,-13.38,,,,,,,
20.91,0.00033,-17.09,,,,,,,
20.95,0.0003,-17.43,,,,,,,
21.03,0.00028,-25.3,,,,,,,
21.05,0.00025,-29.93,,,,,,,
21.07,0.00023,-34.55,,,,,,,
21.08,0.0002,-40.37,,,,,,,
21.1,0.00017,-44.79,,,,,,,
21.11,0.00015,-48.08,,,,,,,
21.12,0.00012,-50.9,,,,,,,
21.13,0.0001,-53.4,,,,,,,
21.14,7e-05,-55.42,,,,,,,
21.16,5e-05,-56.97,,,,,,,
21.2,2e-05,-57.67,,,,,,,
21.27,-0.0,-63.0,,,,,,,
21.3,-3e-05,-67.63,,,,,,,
21.32,-6e-05,-71.55,,,,,,,
21.34,-8e-05,-75.01,,,,,,,
21.36,-0.00011,-78.31,,,,,,,
21.38,-0.00013,-81.14,,,,,,,
21.41,-0.00016,-83.96,,,,,,,
21.44,-0.00018,-87.08,,,,,,,
21.48,-0.00021,-91.03,,,,,,,
21.51,-0.00023,-95.07,,,,,,,
21.54,-0.00026,-98.78,,,,,,,
21.56,-0.00029,-102.4,,,,,,,
21.59,-0.00031,-105.9,,,,,,,
21.62,-0.00034,-109.6,,,,,,,
21.64,-0.00036,-113.1,,,,,,,
21.67,-0.00039,-117.3,,,,,,,
21.69,-0.00041,-121.1,,,,,,,
21.71,-0.00044,-124.8,,,,,,,
21.73,-0.00046,-128.0,,,,,,,
21.75,-0.00049,-130.3,,,,,,,
21.76,-0.00052,-132.4,,,,,,,
21.77,-0.00054,-133.9,,,,,,,
21.79,-0.00057,-135.2,,,,,,,
21.8,-0.0006,-136.0,,,,,,,
21.82,-0.00062,-136.4,,,,,,,
21.91,-0.00065,-139.0,,,,,,,
21.94,-0.00067,-144.3,,,,,,,
21.95,-0.0007,-146.8,,,,,,,
21.96,-0.00073,-147.8,,,,,,,
21.97,-0.00075,-148.8,,,,,,,
21.97,-0.00078,-149.6,,,,,,,
21.98,-0.00081,-150.2,,,,,,,
21.98,-0.00084,-150.7,,,,,,,
21.99,-0.00087,-151.0,,,,,,,
22.0,-0.0009,-151.0,,,,,,,
22.0,-0.00092,-150.5,,,,,,,
22.06,-0.0009,-132.4,,,,,,,
22.07,-0.00087,-129.2,,,,,,,
22.08,-0.00084,-126.8,,,,,,,
22.09,-0.00082,-125.7,,,,,,,
22.15,-0.00084,-143.6,,,,,,,
22.16,-0.00087,-148.2,,,,,,,
22.17,-0.0009,-152.0,,,,,,,
22.18,-0.00092,-155.4,,,,,,,
22.19,-0.00095,-158.3,,,,,,,
22.19,-0.00098,-160.5,,,,,,,
22.2,-0.001,-161.1,,,,,,,
22.21,-0.00103,-160.8,,,,,,,
22.22,-0.00106,-161.2,,,,,,,
22.22,-0.00109,-161.5,,,,,,,
22.22,-0.00112,-161.6,,,,,,,
22.23,-0.00115,-161.6,,,,,,,
22.23,-0.00118,-161.5,,,,,,,
22.24,-0.00121,-161.2,,,,,,,
22.24,-0.00123,-160.5,,,,,,,
22.25,-0.00126,-158.1,,,,,,,
22.28,-0.00123,-140.0,,,,,,,
22.28,-0.00121,-135.2,,,,,,,
22.29,-0.00118,-131.2,,,,,,,
22.3,-0.00116,-127.7,,,,,,,
22.3,-0.00113,-124.5,,,,,,,
22.31,-0.0011,-121.8,,,,,,,
22.31,-0.00108,-119.7,,,,,,,
22.32,-0.00105,-118.2,,,,,,,
22.33,-0.00103,-117.4,,,,,,,
22.34,-0.001,-118.2,,,,,,,
22.38,-0.00103,-137.0,,,,,,,
22.39,-0.00105,-142.1,,,,,,,
22.39,-0.00108,-147.1,,,,,,,
22.4,-0.00111,-151.3,,,,,,,
22.41,-0.00114,-155.1,,,,,,,
22.42,-0.00116,-158.5,,,,,,,
22.42,-0.00119,-161.5,,,,,,,
22.43,-0.00122,-164.0,,,,,,,
22.44,-0.00124,-166.2,,,,,,,
22.45,-0.00127,-167.9,,,,,,,
22.46,-0.00129,-168.9,,,,,,,
22.47,-0.00132,-168.5,,,,,,,
22.62,-0.00134,-173.3,,,,,,,
22.64,-0.00137,-172.0,,,,,,,
22.7,-0.00134,-154.3,,,,,,,
22.71,-0.00132,-150.0,,,,,,,
22.72,-0.00129,-145.8,,,,,,,
22.73,-0.00127,-142.4,,,,,,,
22.74,-0.00124,-139.1,,,,,,,
22.75,-0.00121,-136.3,,,,,,,
22.76,-0.00119,-133.7,,,,,,,
22.78,-0.00116,-131.6,,,,,,,
22.8,-0.00113,-130.4,,,,,,,
22.9,-0.00111,-122.8,,,,,,,
22.92,-0.00108,-117.8,,,,,,,
22.94,-0.00106,-113.5,,,,,,,
22.96,-0.00103,-109.8,,,,,,,
22.98,-0.00101,-106.5,,,,,,,
23.0,-0.00098,-103.2,,,,,,,
23.02,-0.00096,-99.8,,,,,,,
23.06,-0.00093,-95.81,,,,,,,
23.09,-0.00091,-90.88,,,,,,,
23.12,-0.00088,-86.08,,,,,,,
23.15,-0.00085,-81.99,,,,,,,
23.17,-0.00083,-78.0,,,,,,,
23.19,-0.0008,-73.97,,,,,,,
23.22,-0.00078,-69.97,,,,,,,
23.25,-0.00075,-65.45,,,,,,,
23.27,-0.00073,-60.93,,,,,,,
23.3,-0.0007,-56.75,,,,,,,
23.33,-0.00068,-52.47,,,,,,,
23.35,-0.00065,-48.43,,,,,,,
23.38,-0.00063,-44.61,,,,,,,
23.41,-0.0006,-40.4,,,,,,,
23.44,-0.00058,-36.31,,,,,,,
23.46,-0.00055,-32.39,,,,,,,
23.49,-0.00053,-28.47,,,,,,,
23.51,-0.0005,-24.82,,,,,,,
23.54,-0.00047,-21.15,,,,,,,
23.56,-0.00045,-17.22,,,,,,,
23.59,-0.00042,-13.48,,,,,,,
23.62,-0.0004,-9.68,,,,,,,
23.64,-0.00037,-5.9,,,,,,,
23.67,-0.00035,-1.85,,,,,,,
23.7,-0.00032,1.95,,,,,,,
23.73,-0.0003,5.85,,,,,,,
23.75,-0.00027,9.94,,,,,,,
23.78,-0.00025,13.71,,,,,,,
23.8,-0.00022,17.2,,,,,,,
23.83,-0.00019,20.51,,,,,,,
23.85,-0.00017,23.64,,,,,,,
23.88,-0.00014,26.75,,,,,,,
23.91,-0.00012,29.95,,,,,,,
23.94,-9e-05,32.41,,,,,,,
48.01,-0.00012,55.41,,,,,,,
48.02,-9e-05,59.27,,,,,,,
48.03,-6e-05,62.49,,,,,,,
48.04,-4e-05,65.42,,,,,,,
48.05,-1e-05,67.87,,,,,,,
48.06,1e-05,69.84,,,,,,,
48.07,4e-05,71.39,,,,,,,
48.09,7e-05,71.78,,,,,,,
48.21,9e-05,78.23,,,,,,,
48.23,0.00012,82.85,,,,,,,
48.25,0.00014,86.78,,,,,,,
48.27,0.00017,90.13,,,,,,,
48.29,0.00019,93.42,,,,,,,
48.31,0.00022,96.31,,,,,,,
48.34,0.00024,99.27,,,,,,,
48.37,0.00027,102.55,,,,,,,
48.41,0.0003,106.08,,,,,,,
48.44,0.00032,109.8,,,,,,,
48.46,0.00035,113.75,,,,,,,
48.49,0.00037,117.57,,,,,,,
48.52,0.0004,121.07,,,,,,,
48.54,0.00042,124.7,,,,,,,
48.57,0.00045,128.25,,,,,,,
48.6,0.00047,131.64,,,,,,,
48.63,0.0005,135.21,,,,,,,
48.65,0.00053,138.56,,,,,,,
48.68,0.00055,141.84,,,,,,,
48.7,0.00058,144.92,,,,,,,
48.73,0.0006,147.62,,,,,,,
48.75,0.00063,149.94,,,,,,,
48.77,0.00065,151.92,,,,,,,
48.79,0.00068,153.28,,,,,,,
48.8,0.00071,154.34,,,,,,,
48.81,0.00073,155.13,,,,,,,
48.82,0.00076,155.63,,,,,,,
48.84,0.00078,155.8,,,,,,,
48.85,0.00081,155.43,,,,,,,
48.96,0.00083,159.1,,,,,,,
48.98,0.00086,163.47,,,,,,,
49.0,0.00089,164.55,,,,,,,
49.0,0.00092,165.28,,,,,,,
49.01,0.00094,165.75,,,,,,,
49.01,0.00097,165.92,,,,,,,
49.02,0.001,166.12,,,,,,,
49.02,0.00103,166.43,,,,,,,
49.03,0.00106,166.71,,,,,,,
49.03,0.00109,166.88,,,,,,,
49.03,0.00112,166.89,,,,,,,
49.04,0.00115,166.61,,,,,,,
49.04,0.00118,165.8,,,,,,,
49.05,0.0012,163.14,,,,,,,
49.08,0.00118,146.48,,,,,,,
49.09,0.00115,141.57,,,,,,,
49.1,0.00112,137.63,,,,,,,
49.1,0.0011,134.11,,,,,,,
49.11,0.00107,131.15,,,,,,,
49.12,0.00104,128.95,,,,,,,
49.13,0.00102,127.29,,,,,,,
49.13,0.00099,126.6,,,,,,,
49.15,0.00096,129.7,,,,,,,
49.18,0.00099,141.84,,,,,,,
49.19,0.00102,147.43,,,,,,,
49.2,0.00104,151.84,,,,,,,
49.21,0.00107,156.11,,,,,,,
49.21,0.0011,159.45,,,,,,,
49.22,0.00112,162.4,,,,,,,
49.23,0.00115,165.13,,,,,,,
49.23,0.00118,167.59,,,,,,,
49.24,0.0012,169.66,,,,,,,
49.25,0.00123,171.14,,,,,,,
49.27,0.00125,171.98,,,,,,,
49.4,0.00128,174.04,,,,,,,
49.42,0.00131,178.92,,,,,,,
49.44,0.00133,178.22,,,,,,,
49.44,0.00136,178.09,,,,,,,
49.45,0.00139,178.69,,,,,,,
49.45,0.00141,179.0,,,,,,,
49.46,0.00144,179.12,,,,,,,
49.46,0.00148,179.12,,,,,,,
49.46,0.00151,179.22,,,,,,,
49.46,0.00154,179.36,,,,,,,
49.47,0.00158,179.44,,,,,,,
49.47,0.00161,179.44,,,,,,,
49.47,0.00164,179.32,,,,,,,
49.48,0.00167,179.08,,,,,,,
49.48,0.0017,178.66,,,,,,,
49.48,0.00173,177.99,,,,,,,
49.49,0.00176,176.53,,,,,,,
49.49,0.00179,173.97,,,,,,,
49.5,0.00181,167.46,,,,,,,
49.52,0.00178,149.95,,,,,,,
49.52,0.00176,142.97,,,,,,,
49.53,0.00173,137.18,,,,,,,
49.53,0.0017,132.56,,,,,,,
49.53,0.00167,128.01,,,,,,,
49.54,0.00165,123.64,,,,,,,
49.54,0.00162,119.42,,,,,,,
49.55,0.00158,115.42,,,,,,,
49.55,0.00155,111.63,,,,,,,
49.55,0.00152,108.16,,,,,,,
49.56,0.00149,105.01,,,,,,,
49.56,0.00147,102.17,,,,,,,
49.57,0.00144,99.63,,,,,,,
49.57,0.00141,97.51,,,,,,,
49.57,0.00138,95.38,,,,,,,
49.58,0.00135,93.87,,,,,,,
49.58,0.00132,92.73,,,,,,,
49.59,0.0013,92.34,,,,,,,
49.6,0.00127,93.16,,,,,,,
49.64,0.0013,108.11,,,,,,,
49.65,0.00132,111.65,,,,,,,
49.66,0.00135,114.27,,,,,,,
49.67,0.00137,116.18,,,,,,,
49.68,0.0014,117.06,,,,,,,
49.74,0.00137,98.94,,,,,,,
49.75,0.00135,94.49,,,,,,,
49.76,0.00132,90.62,,,,,,,
49.77,0.00129,87.2,,,,,,,
49.78,0.00127,84.17,,,,,,,
49.79,0.00124,81.67,,,,,,,
49.8,0.00122,79.23,,,,,,,
49.81,0.00119,77.3,,,,,,,
49.83,0.00116,75.99,,,,,,,
49.87,0.00115,76.04,,,,,,,
49.93,0.00114,71.99,,,,,,,
49.96,0.00111,66.29,,,,,,,
49.98,0.00109,61.82,,,,,,,
50.0,0.00106,57.51,,,,,,,
50.02,0.00104,53.83,,,,,,,
50.04,0.00101,50.5,,,,,,,
50.06,0.00099,47.15,,,,,,,
50.09,0.00096,43.89,,,,,,,
50.12,0.00093,39.77,,,,,,,
50.15,0.00091,35.47,,,,,,,
50.18,0.00088,31.37,,,,,,,
50.21,0.00086,27.29,,,,,,,
50.24,0.00083,23.25,,,,,,,
50.26,0.00081,19.32,,,,,,,
50.28,0.00078,15.76,,,,,,,
50.31,0.00076,12.45,,,,,,,
50.33,0.00073,8.95,,,,,,,
50.36,0.00071,5.38,,,,,,,
50.39,0.00068,1.1,,,,,,,
50.42,0.00065,-3.1,,,,,,,
50.44,0.00063,-6.78,,,,,,,
50.47,0.0006,-10.35,,,,,,,
50.5,0.00058,-14.17,,,,,,,
50.53,0.00055,-16.47,,,,,,,
50.63,0.00053,-22.51,,,,,,,
50.65,0.0005,-28.0,,,,,,,
50.66,0.00047,-32.98,,,,,,,
50.68,0.00045,-37.98,,,,,,,
50.69,0.00042,-41.79,,,,,,,
50.7,0.0004,-45.27,,,,,,,
50.71,0.00037,-48.05,,,,,,,
50.73,0.00034,-50.57,,,,,,,
50.75,0.00032,-52.76,,,,,,,
50.79,0.00029,-54.98,,,,,,,
50.85,0.00027,-60.89,,,,,,,
50.88,0.00024,-65.52,,,,,,,
50.9,0.00022,-69.27,,,,,,,
50.92,0.00019,-72.92,,,,,,,
50.94,0.00017,-76.24,,,,,,,
50.96,0.00014,-79.25,,,,,,,
50.99,0.00012,-82.22,,,,,,,
51.02,9e-05,-85.38,,,,,,,
51.05,7e-05,-88.49,,,,,,,
51.08,4e-05,-91.82,,,,,,,
51.11,1e-05,-95.29,,,,,,,
51.13,-1e-05,-98.63,,,,,,,
51.16,-4e-05,-101.9,,,,,,,
51.19,-6e-05,-105.0,,,,,,,
51.21,-9e-05,-108.2,,,,,,,
51.24,-0.00011,-111.4,,,,,,,
51.27,-0.00014,-114.8,,,,,,,
51.3,-0.00016,-118.3,,,,,,,
51.32,-0.00019,-122.1,,,,,,,
51.34,-0.00022,-125.9,,,,,,,
51.37,-0.00024,-129.6,,,,,,,
51.39,-0.00027,-133.1,,,,,,,
51.41,-0.00029,-136.4,,,,,,,
51.43,-0.00032,-139.5,,,,,,,
51.45,-0.00034,-142.0,,,,,,,
51.46,-0.00037,-143.7,,,,,,,
51.47,-0.0004,-144.9,,,,,,,
51.49,-0.00042,-145.9,,,,,,,
51.5,-0.00045,-146.5,,,,,,,
51.51,-0.00047,-146.8,,,,,,,
51.53,-0.0005,-146.5,,,,,,,
51.65,-0.00053,-151.6,,,,,,,
51.67,-0.00055,-156.2,,,,,,,
51.68,-0.00058,-156.4,,,,,,,
51.69,-0.00061,-156.9,,,,,,,
51.69,-0.00063,-157.3,,,,,,,
51.7,-0.00066,-157.9,,,,,,,
51.7,-0.00069,-158.3,,,,,,,
51.7,-0.00072,-158.8,,,,,,,
51.71,-0.00075,-159.1,,,,,,,
51.71,-0.00077,-159.3,,,,,,,
51.71,-0.00081,-159.4,,,,,,,
51.72,-0.00083,-159.4,,,,,,,
51.72,-0.00086,-158.9,,,,,,,
51.73,-0.00088,-157.3,,,,,,,
51.76,-0.00086,-136.8,,,,,,,
51.77,-0.00083,-132.2,,,,,,,
51.78,-0.0008,-128.0,,,,,,,
51.78,-0.00078,-124.7,,,,,,,
51.79,-0.00075,-121.9,,,,,,,
51.8,-0.00072,-119.4,,,,,,,
51.8,-0.0007,-117.7,,,,,,,
51.81,-0.00067,-116.6,,,,,,,
51.82,-0.00064,-117.2,,,,,,,
51.86,-0.00067,-135.8,,,,,,,
51.87,-0.00069,-140.7,,,,,,,
51.88,-0.00072,-144.9,,,,,,,
51.89,-0.00075,-148.9,,,,,,,
51.89,-0.00078,-152.6,,,,,,,
51.9,-0.00081,-155.8,,,,,,,
51.91,-0.00083,-158.6,,,,,,,
51.91,-0.00086,-161.0,,,,,,,
51.92,-0.00089,-163.0,,,,,,,
51.93,-0.00091,-164.6,,,,,,,
51.94,-0.00094,-165.4,,,,,,,
51.97,-0.00096,-164.1,,,,,,,
52.03,-0.00094,-159.9,,,,,,,
52.08,-0.00096,-167.7,,,,,,,
52.1,-0.00099,-171.9,,,,,,,
52.11,-0.00101,-173.5,,,,,,,
52.13,-0.00104,-171.8,,,,,,,
52.13,-0.00107,-172.5,,,,,,,
52.13,-0.00109,-172.8,,,,,,,
52.14,-0.00112,-173.1,,,,,,,
52.14,-0.00116,-173.3,,,,,,,
52.15,-0.00118,-173.3,,,,,,,
52.15,-0.00121,-173.3,,,,,,,
52.15,-0.00124,-173.1,,,,,,,
52.15,-0.00126,-172.8,,,,,,,
52.16,-0.00129,-172.5,,,,,,,
52.16,-0.00132,-172.2,,,,,,,
52.16,-0.00134,-171.8,,,,,,,
52.17,-0.00137,-170.9,,,,,,,
52.17,-0.0014,-169.6,,,,,,,
52.18,-0.00143,-167.2,,,,,,,
52.18,-0.00146,-162.1,,,,,,,
52.2,-0.00143,-143.1,,,,,,,
52.21,-0.00141,-136.5,,,,,,,
52.21,-0.00138,-131.0,,,,,,,
52.22,-0.00135,-125.7,,,,,,,
52.22,-0.00132,-121.6,,,,,,,
52.23,-0.0013,-117.7,,,,,,,
52.23,-0.00127,-114.1,,,,,,,
52.23,-0.00124,-110.9,,,,,,,
52.24,-0.00121,-108.0,,,,,,,
52.24,-0.00119,-105.4,,,,,,,
52.25,-0.00116,-103.4,,,,,,,
52.25,-0.00113,-101.8,,,,,,,
52.25,-0.0011,-100.5,,,,,,,
52.26,-0.00108,-99.81,,,,,,,
52.27,-0.00105,-99.82,,,,,,,
52.27,-0.00103,-101.5,,,,,,,
52.31,-0.00105,-123.6,,,,,,,
52.31,-0.00108,-129.7,,,,,,,
52.32,-0.00111,-134.9,,,,,,,
52.33,-0.00113,-139.2,,,,,,,
52.33,-0.00116,-143.2,,,,,,,
52.33,-0.00119,-147.0,,,,,,,
52.34,-0.00122,-150.6,,,,,,,
52.34,-0.00125,-153.9,,,,,,,
52.35,-0.00127,-156.8,,,,,,,
52.35,-0.0013,-159.5,,,,,,,
52.36,-0.00133,-162.0,,,,,,,
52.37,-0.00136,-164.0,,,,,,,
52.37,-0.00138,-165.5,,,,,,,
52.38,-0.00141,-166.3,,,,,,,
52.39,-0.00144,-166.2,,,,,,,
52.45,-0.00141,-153.6,,,,,,,
52.46,-0.00138,-151.5,,,,,,,
52.48,-0.00136,-151.6,,,,,,,
52.53,-0.00138,-164.3,,,,,,,
52.54,-0.00141,-168.3,,,,,,,
52.56,-0.00144,-171.0,,,,,,,
52.57,-0.00146,-172.8,,,,,,,
52.58,-0.00149,-172.9,,,,,,,
52.64,-0.00146,-158.1,,,,,,,
52.65,-0.00144,-153.4,,,,,,,
52.66,-0.00141,-149.3,,,,,,,
52.67,-0.00138,-145.8,,,,,,,
52.68,-0.00136,-142.3,,,,,,,
52.69,-0.00133,-139.5,,,,,,,
52.7,-0.0013,-137.0,,,,,,,
52.71,-0.00128,-135.0,,,,,,,
52.73,-0.00125,-133.7,,,,,,,
52.83,-0.00123,-129.2,,,,,,,
52.86,-0.0012,-124.2,,,,,,,
52.88,-0.00117,-120.0,,,,,,,
52.9,-0.00115,-116.1,,,,,,,
52.92,-0.00112,-112.4,,,,,,,
52.93,-0.0011,-109.2,,,,,,,
52.96,-0.00107,-106.0,,,,,,,
52.98,-0.00105,-103.0,,,,,,,
53.01,-0.00102,-99.52,,,,,,,
53.05,-0.001,-95.55,,,,,,,
53.08,-0.00097,-91.67,,,,,,,
53.1,-0.00095,-87.95,,,,,,,
53.13,-0.00092,-84.05,,,,,,,
53.15,-0.0009,-80.5,,,,,,,
53.17,-0.00087,-76.99,,,,,,,
53.2,-0.00084,-73.29,,,,,,,
53.23,-0.00082,-69.64,,,,,,,
53.25,-0.00079,-66.1,,,,,,,
53.28,-0.00077,-62.27,,,,,,,
53.3,-0.00074,-58.76,,,,,,,
53.33,-0.00072,-55.15,,,,,,,
53.36,-0.00069,-51.31,,,,,,,
53.39,-0.00067,-47.62,,,,,,,
53.42,-0.00064,-43.73,,,,,,,
53.44,-0.00062,-39.72,,,,,,,
53.47,-0.00059,-35.74,,,,,,,
53.49,-0.00057,-31.9,,,,,,,
53.52,-0.00054,-28.45,,,,,,,
53.54,-0.00051,-24.9,,,,,,,
53.57,-0.00049,-21.15,,,,,,,
53.6,-0.00046,-17.54,,,,,,,
53.63,-0.00044,-13.61,,,,,,,
53.65,-0.00041,-9.69,,,,,,,
53.68,-0.00039,-5.83,,,,,,,
53.7,-0.00036,-2.01,,,,,,,
53.73,-0.00034,1.57,,,,,,,
53.76,-0.00031,5.18,,,,,,,
53.78,-0.00029,9.0,,,,,,,
53.81,-0.00026,13.03,,,,,,,
53.84,-0.00023,16.9,,,,,,,
53.87,-0.00021,20.78,,,,,,,
53.89,-0.00018,24.35,,,,,,,
53.92,-0.00016,27.87,,,,,,,
53.95,-0.00013,31.38,,,,,,,
108.1,-9e-05,75.64,,,,,,,
108.13,-7e-05,80.4,,,,,,,
108.15,-4e-05,84.59,,,,,,,
108.18,-2e-05,88.56,,,,,,,
108.2,1e-05,92.09,,,,,,,
108.22,3e-05,95.57,,,,,,,
108.25,6e-05,99.59,,,,,,,
108.28,9e-05,103.37,,,,,,,
108.31,0.00011,107.39,,,,,,,
108.34,0.00014,111.16,,,,,,,
108.37,0.00016,115.09,,,,,,,
108.39,0.00019,118.81,,,,,,,
108.42,0.00021,122.24,,,,,,,
108.44,0.00024,125.39,,,,,,,
108.47,0.00026,128.53,,,,,,,
108.5,0.00029,132.26,,,,,,,
108.53,0.00032,135.71,,,,,,,
108.55,0.00034,138.91,,,,,,,
108.58,0.00037,142.0,,,,,,,
108.6,0.00039,145.15,,,,,,,
108.63,0.00042,148.39,,,,,,,
108.66,0.00044,151.54,,,,,,,
108.69,0.00047,154.82,,,,,,,
108.71,0.00049,157.88,,,,,,,
108.73,0.00052,160.25,,,,,,,
108.74,0.00055,161.24,,,,,,,
108.75,0.00057,161.77,,,,,,,
108.76,0.0006,162.31,,,,,,,
108.77,0.00063,162.7,,,,,,,
108.77,0.00066,163.02,,,,,,,
108.78,0.00069,163.2,,,,,,,
108.79,0.00071,163.18,,,,,,,
108.79,0.00074,162.89,,,,,,,
108.8,0.00076,161.99,,,,,,,
108.81,0.00079,158.47,,,,,,,
108.84,0.00076,148.16,,,,,,,
108.85,0.00074,144.03,,,,,,,
108.86,0.00071,141.03,,,,,,,
108.87,0.00068,139.13,,,,,,,
108.89,0.00066,138.96,,,,,,,
108.94,0.00069,152.87,,,,,,,
108.95,0.00071,157.54,,,,,,,
108.96,0.00074,161.19,,,,,,,
108.97,0.00076,164.57,,,,,,,
108.97,0.00079,167.58,,,,,,,
108.98,0.00082,170.33,,,,,,,
109.0,0.00084,172.61,,,,,,,
109.01,0.00087,173.77,,,,,,,
109.02,0.0009,173.93,,,,,,,
109.03,0.00092,174.04,,,,,,,
109.04,0.00095,174.02,,,,,,,
109.05,0.00097,173.59,,,,,,,
109.07,0.001,171.37,,,,,,,
109.11,0.00097,163.97,,,,,,,
109.14,0.00095,162.76,,,,,,,
109.19,0.00097,173.38,,,,,,,
109.21,0.001,177.65,,,,,,,
109.22,0.00103,181.0,,,,,,,
109.23,0.00105,178.38,,,,,,,
109.23,0.00108,179.36,,,,,,,
109.24,0.00111,179.84,,,,,,,
109.24,0.00114,180.19,,,,,,,
109.24,0.00117,180.47,,,,,,,
109.24,0.00119,180.63,,,,,,,
109.25,0.00122,180.83,,,,,,,
109.25,0.00125,181.02,,,,,,,
109.25,0.00128,181.19,,,,,,,
109.25,0.00132,181.29,,,,,,,
109.26,0.00135,181.17,,,,,,,
109.26,0.00137,180.92,,,,,,,
109.26,0.0014,180.46,,,,,,,
109.27,0.00143,179.45,,,,,,,
109.27,0.00146,177.37,,,,,,,
109.28,0.00148,171.44,,,,,,,
109.3,0.00145,153.2,,,,,,,
109.3,0.00143,146.76,,,,,,,
109.31,0.0014,141.31,,,,,,,
109.31,0.00137,136.1,,,,,,,
109.32,0.00134,132.03,,,,,,,
109.32,0.00132,128.28,,,,,,,
109.33,0.00129,124.74,,,,,,,
109.33,0.00126,121.38,,,,,,,
109.33,0.00123,118.51,,,,,,,
109.34,0.00121,115.98,,,,,,,
109.34,0.00118,113.82,,,,,,,
109.35,0.00115,111.63,,,,,,,
109.35,0.00112,110.22,,,,,,,
109.36,0.00109,109.4,,,,,,,
109.36,0.00107,109.51,,,,,,,
109.37,0.00104,111.73,,,,,,,
109.41,0.00107,132.16,,,,,,,
109.41,0.00109,138.05,,,,,,,
109.42,0.00112,143.08,,,,,,,
109.42,0.00115,148.02,,,,,,,
109.43,0.00117,151.88,,,,,,,
109.43,0.0012,155.59,,,,,,,
109.44,0.00123,158.96,,,,,,,
109.44,0.00126,162.11,,,,,,,
109.45,0.00128,164.99,,,,,,,
109.45,0.00131,167.46,,,,,,,
109.46,0.00134,169.92,,,,,,,
109.46,0.00136,171.77,,,,,,,
109.47,0.00139,173.29,,,,,,,
109.48,0.00142,174.13,,,,,,,
109.49,0.00144,174.08,,,,,,,
109.55,0.00142,161.52,,,,,,,
109.58,0.00139,160.14,,,,,,,
109.63,0.00142,170.42,,,,,,,
109.65,0.00144,173.06,,,,,,,
109.67,0.00147,173.95,,,,,,,
109.73,0.00144,157.52,,,,,,,
109.75,0.00142,152.95,,,,,,,
109.76,0.00139,149.05,,,,,,,
109.77,0.00136,145.49,,,,,,,
109.78,0.00134,142.15,,,,,,,
109.79,0.00131,139.22,,,,,,,
109.81,0.00129,136.38,,,,,,,
109.83,0.00126,133.77,,,,,,,
109.87,0.00124,130.33,,,,,,,
109.87,0.00124,130.26,,,,,,,
109.92,0.00121,124.68,,,,,,,
109.95,0.00119,119.12,,,,,,,
109.98,0.00116,114.72,,,,,,,
110.0,0.00114,110.45,,,,,,,
110.02,0.00111,106.62,,,,,,,
110.04,0.00108,102.98,,,,,,,
110.07,0.00106,99.18,,,,,,,
110.09,0.00103,95.37,,,,,,,
110.12,0.00101,91.65,,,,,,,
110.15,0.00098,87.64,,,,,,,
110.18,0.00096,83.82,,,,,,,
110.2,0.00093,80.26,,,,,,,
110.23,0.00091,76.58,,,,,,,
110.26,0.00088,72.69,,,,,,,
110.29,0.00086,68.55,,,,,,,
110.32,0.00083,63.99,,,,,,,
110.34,0.00081,59.75,,,,,,,
110.37,0.00078,55.57,,,,,,,
110.4,0.00075,51.32,,,,,,,
110.42,0.00073,47.23,,,,,,,
110.44,0.0007,43.53,,,,,,,
110.47,0.00068,40.03,,,,,,,
110.49,0.00065,36.39,,,,,,,
110.52,0.00063,32.68,,,,,,,
110.55,0.0006,28.68,,,,,,,
110.58,0.00058,24.74,,,,,,,
110.6,0.00055,20.96,,,,,,,
110.63,0.00053,17.17,,,,,,,
110.65,0.0005,13.33,,,,,,,
110.68,0.00047,9.44,,,,,,,
110.71,0.00045,5.68,,,,,,,
110.73,0.00042,1.99,,,,,,,
110.76,0.0004,-1.78,,,,,,,
110.79,0.00037,-5.45,,,,,,,
110.81,0.00035,-9.31,,,,,,,
110.84,0.00032,-13.19,,,,,,,
110.87,0.0003,-16.14,,,,,,,
110.98,0.00027,-23.63,,,,,,,
111.0,0.00025,-30.44,,,,,,,
111.01,0.00022,-35.95,,,,,,,
111.02,0.00019,-40.3,,,,,,,
111.03,0.00017,-44.03,,,,,,,
111.04,0.00014,-47.07,,,,,,,
111.05,0.00011,-49.8,,,,,,,
111.06,9e-05,-52.04,,,,,,,
111.08,6e-05,-53.72,,,,,,,
111.11,4e-05,-54.72,,,,,,,
111.2,1e-05,-61.45,,,,,,,
111.22,-1e-05,-66.04,,,,,,,
111.24,-4e-05,-69.98,,,,,,,
111.26,-6e-05,-73.29,,,,,,,
111.28,-9e-05,-76.46,,,,,,,
111.31,-0.00012,-79.53,,,,,,,
111.34,-0.00014,-82.58,,,,,,,
111.37,-0.00017,-85.81,,,,,,,
111.4,-0.00019,-89.76,,,,,,,
111.44,-0.00022,-93.97,,,,,,,
111.46,-0.00024,-97.97,,,,,,,
111.49,-0.00027,-101.7,,,,,,,
111.51,-0.0003,-105.4,,,,,,,
111.54,-0.00032,-108.9,,,,,,,
111.57,-0.00035,-112.5,,,,,,,
111.59,-0.00037,-115.8,,,,,,,
111.62,-0.0004,-119.4,,,,,,,
111.64,-0.00042,-122.7,,,,,,,
111.67,-0.00045,-126.1,,,,,,,
111.7,-0.00047,-130.0,,,,,,,
111.72,-0.0005,-133.5,,,,,,,
111.74,-0.00052,-137.3,,,,,,,
111.76,-0.00055,-141.0,,,,,,,
111.78,-0.00058,-144.3,,,,,,,
111.8,-0.0006,-147.3,,,,,,,
111.82,-0.00063,-150.5,,,,,,,
111.84,-0.00065,-153.4,,,,,,,
111.86,-0.00068,-155.8,,,,,,,
111.87,-0.0007,-157.8,,,,,,,
111.89,-0.00073,-159.3,,,,,,,
111.91,-0.00076,-160.2,,,,,,,
111.92,-0.00078,-161.0,,,,,,,
111.94,-0.00081,-161.3,,,,,,,
111.97,-0.00083,-161.0,,,,,,,
112.05,-0.00086,-164.7,,,,,,,
112.07,-0.00088,-168.9,,,,,,,
112.09,-0.00091,-169.4,,,,,,,
112.1,-0.00094,-170.3,,,,,,,
112.11,-0.00097,-170.8,,,,,,,
112.11,-0.00099,-171.2,,,,,,,
112.12,-0.00102,-171.5,,,,,,,
112.12,-0.00104,-171.8,,,,,,,
112.12,-0.00107,-172.0,,,,,,,
112.13,-0.0011,-172.0,,,,,,,
112.13,-0.00113,-171.8,,,,,,,
112.14,-0.00116,-171.2,,,,,,,
112.14,-0.00119,-170.2,,,,,,,
112.15,-0.00121,-166.6,,,,,,,
112.18,-0.00119,-151.3,,,,,,,
112.19,-0.00116,-146.2,,,,,,,
112.2,-0.00114,-142.2,,,,,,,
112.2,-0.00111,-138.6,,,,,,,
112.21,-0.00108,-135.6,,,,,,,
112.22,-0.00105,-133.2,,,,,,,
112.22,-0.00102,-131.3,,,,,,,
112.23,-0.001,-130.5,,,,,,,
112.25,-0.00097,-131.8,,,,,,,
112.28,-0.001,-147.3,,,,,,,
112.29,-0.00103,-152.5,,,,,,,
112.3,-0.00105,-157.0,,,,,,,
112.3,-0.00108,-160.8,,,,,,,
112.31,-0.00111,-164.4,,,,,,,
112.32,-0.00113,-167.5,,,,,,,
112.33,-0.00116,-170.3,,,,,,,
112.33,-0.00119,-172.9,,,,,,,
112.34,-0.00121,-174.9,,,,,,,
112.35,-0.00124,-176.6,,,,,,,
112.36,-0.00127,-177.4,,,,,,,
112.38,-0.00129,-176.6,,,,,,,
112.52,-0.00132,-182.5,,,,,,,
112.53,-0.00134,-183.7,,,,,,,
112.55,-0.00137,-186.3,,,,,,,
112.56,-0.0014,-186.5,,,,,,,
112.57,-0.00142,-185.4,,,,,,,
112.57,-0.00145,-184.4,,,,,,,
112.57,-0.00148,-184.0,,,,,,,
112.58,-0.00151,-184.1,,,,,,,
112.58,-0.00154,-184.1,,,,,,,
112.58,-0.00157,-184.2,,,,,,,
112.58,-0.0016,-184.3,,,,,,,
112.58,-0.00163,-184.3,,,,,,,
112.59,-0.00166,-184.3,,,,,,,
112.59,-0.00169,-184.3,,,,,,,
112.59,-0.00172,-184.2,,,,,,,
112.59,-0.00175,-184.0,,,,,,,
112.59,-0.00178,-183.7,,,,,,,
112.6,-0.00181,-183.1,,,,,,,
112.6,-0.00184,-182.0,,,,,,,
112.6,-0.00187,-180.0,,,,,,,
112.61,-0.0019,-175.5,,,,,,,
112.63,-0.00187,-147.6,,,,,,,
112.64,-0.00184,-139.6,,,,,,,
112.64,-0.00181,-132.9,,,,,,,
112.64,-0.00178,-126.2,,,,,,,
112.65,-0.00176,-121.1,,,,,,,
112.65,-0.00173,-116.1,,,,,,,
112.65,-0.0017,-111.2,,,,,,,
112.66,-0.00167,-106.4,,,,,,,
112.66,-0.00164,-101.7,,,,,,,
112.66,-0.00161,-97.31,,,,,,,
112.66,-0.00158,-93.06,,,,,,,
112.67,-0.00155,-89.18,,,,,,,
112.67,-0.00152,-85.5,,,,,,,
112.67,-0.00148,-82.09,,,,,,,
112.68,-0.00145,-79.04,,,,,,,
112.68,-0.00142,-76.31,,,,,,,
112.68,-0.00139,-73.84,,,,,,,
112.68,-0.00136,-71.82,,,,,,,
112.69,-0.00134,-70.1,,,,,,,
112.69,-0.00131,-68.69,,,,,,,
112.69,-0.00128,-67.28,,,,,,,
112.7,-0.00125,-66.45,,,,,,,
112.7,-0.00122,-66.12,,,,,,,
112.71,-0.00119,-66.62,,,,,,,
112.72,-0.00117,-69.19,,,,,,,
112.75,-0.00119,-87.49,,,,,,,
112.75,-0.00122,-92.53,,,,,,,
112.76,-0.00125,-96.62,,,,,,,
112.76,-0.00127,-100.3,,,,,,,
112.77,-0.0013,-103.6,,,,,,,
112.78,-0.00133,-106.3,,,,,,,
112.78,-0.00136,-108.5,,,,,,,
112.79,-0.00139,-110.2,,,,,,,
112.8,-0.00141,-111.0,,,,,,,
112.81,-0.00144,-110.5,,,,,,,
112.85,-0.00141,-89.06,,,,,,,
112.86,-0.00138,-83.78,,,,,,,
112.87,-0.00136,-79.28,,,,,,,
112.87,-0.00133,-75.59,,,,,,,
112.88,-0.00131,-72.09,,,,,,,
112.88,-0.00128,-68.96,,,,,,,
112.89,-0.00126,-66.22,,,,,,,
112.9,-0.00123,-63.35,,,,,,,
112.9,-0.0012,-61.1,,,,,,,
112.91,-0.00118,-59.22,,,,,,,
112.92,-0.00115,-57.69,,,,,,,
112.93,-0.00112,-57.16,,,,,,,
113.08,-0.0011,-46.59,,,,,,,
113.1,-0.00107,-42.34,,,,,,,
113.11,-0.00105,-38.36,,,,,,,
113.13,-0.00102,-34.82,,,,,,,
113.14,-0.00099,-31.39,,,,,,,
113.16,-0.00097,-28.44,,,,,,,
113.19,-0.00094,-25.42,,,,,,,
113.22,-0.00092,-21.8,,,,,,,
113.26,-0.00089,-17.56,,,,,,,
113.29,-0.00087,-12.87,,,,,,,
113.32,-0.00084,-8.73,,,,,,,
113.34,-0.00082,-4.7,,,,,,,
113.37,-0.00079,-0.94,,,,,,,
113.39,-0.00076,2.69,,,,,,,
113.41,-0.00074,6.16,,,,,,,
113.44,-0.00071,9.68,,,,,,,
113.47,-0.00069,13.04,,,,,,,
113.49,-0.00066,16.22,,,,,,,
113.52,-0.00064,19.62,,,,,,,
113.55,-0.00061,22.91,,,,,,,
113.57,-0.00058,26.13,,,,,,,
113.6,-0.00056,29.33,,,,,,,
113.63,-0.00053,31.61,,,,,,,
113.74,-0.00051,39.29,,,,,,,
113.76,-0.00048,45.89,,,,,,,
113.77,-0.00046,50.53,,,,,,,
113.78,-0.00043,54.37,,,,,,,
113.79,-0.0004,57.61,,,,,,,
113.79,-0.00038,60.79,,,,,,,
113.81,-0.00035,63.5,,,,,,,
113.82,-0.00032,65.86,,,,,,,
113.83,-0.0003,67.52,,,,,,,
113.88,-0.00027,68.43,,,,,,,
113.96,-0.00025,74.71,,,,,,,
113.98,-0.00022,78.98,,,,,,,
114.0,-0.0002,82.96,,,,,,,
114.02,-0.00017,86.57,,,,,,,
114.04,-0.00015,89.75,,,,,,,
114.07,-0.00012,92.78,,,,,,,
114.09,-9e-05,95.61,,,,,,,
288.42,-9e-05,46.36,,,,,,,
288.44,-6e-05,51.8,,,,,,,
288.45,-4e-05,56.06,,,,,,,
288.45,-1e-05,59.73,,,,,,,
288.46,2e-05,63.01,,,,,,,
288.47,4e-05,66.06,,,,,,,
288.48,7e-05,68.75,,,,,,,
288.5,0.0001,70.77,,,,,,,
288.51,0.00012,72.11,,,,,,,
288.62,0.00015,76.23,,,,,,,
288.65,0.00017,81.45,,,,,,,
288.67,0.0002,85.73,,,,,,,
288.69,0.00022,89.51,,,,,,,
288.7,0.00025,92.75,,,,,,,
288.72,0.00028,95.77,,,,,,,
288.75,0.0003,98.6,,,,,,,
288.78,0.00033,101.63,,,,,,,
288.81,0.00035,105.13,,,,,,,
288.85,0.00038,109.04,,,,,,,
288.87,0.0004,112.7,,,,,,,
288.9,0.00043,116.15,,,,,,,
288.93,0.00045,119.68,,,,,,,
288.96,0.00048,123.4,,,,,,,
288.98,0.0005,126.91,,,,,,,
289.01,0.00053,130.31,,,,,,,
289.04,0.00056,133.94,,,,,,,
289.06,0.00058,137.17,,,,,,,
289.09,0.00061,140.2,,,,,,,
289.11,0.00063,142.95,,,,,,,
289.14,0.00066,145.9,,,,,,,
289.16,0.00068,148.65,,,,,,,
289.19,0.00071,151.32,,,,,,,
289.21,0.00074,154.35,,,,,,,
289.24,0.00076,157.69,,,,,,,
289.26,0.00079,160.96,,,,,,,
289.29,0.00081,164.24,,,,,,,
289.31,0.00084,167.11,,,,,,,
289.32,0.00086,168.47,,,,,,,
289.34,0.00089,168.51,,,,,,,
289.35,0.00092,169.63,,,,,,,
289.36,0.00094,170.76,,,,,,,
289.38,0.00097,171.65,,,,,,,
289.43,0.00099,172.26,,,,,,,
289.48,0.00102,176.62,,,,,,,
289.5,0.00104,180.04,,,,,,,
289.52,0.00107,180.69,,,,,,,
289.53,0.0011,181.63,,,,,,,
289.53,0.00113,182.32,,,,,,,
289.53,0.00116,182.86,,,,,,,
289.54,0.00119,183.28,,,,,,,
289.54,0.00121,183.59,,,,,,,
289.55,0.00124,183.76,,,,,,,
289.55,0.00127,183.66,,,,,,,
289.56,0.00129,182.66,,,,,,,
289.61,0.00127,165.86,,,,,,,
289.62,0.00124,162.09,,,,,,,
289.63,0.00121,159.3,,,,,,,
289.64,0.00119,157.49,,,,,,,
289.66,0.00116,158.44,,,,,,,
289.7,0.00119,168.05,,,,,,,
289.71,0.00122,172.93,,,,,,,
289.72,0.00124,176.73,,,,,,,
289.73,0.00127,180.24,,,,,,,
289.74,0.0013,183.32,,,,,,,
289.75,0.00132,185.92,,,,,,,
289.76,0.00135,188.15,,,,,,,
289.77,0.00138,189.88,,,,,,,
289.79,0.0014,190.72,,,,,,,
289.81,0.00143,187.38,,,,,,,
289.86,0.00145,186.48,,,,,,,
289.87,0.00145,186.46,,,,,,,
289.99,0.00143,172.8,,,,,,,
290.0,0.0014,168.46,,,,,,,
290.02,0.00138,164.6,,,,,,,
290.03,0.00135,160.88,,,,,,,
290.05,0.00133,157.59,,,,,,,
290.06,0.0013,154.6,,,,,,,
290.09,0.00127,151.21,,,,,,,
290.13,0.00125,146.68,,,,,,,
290.17,0.00122,141.56,,,,,,,
290.2,0.0012,136.64,,,,,,,
290.22,0.00117,132.46,,,,,,,
290.24,0.00115,128.43,,,,,,,
290.27,0.00112,124.57,,,,,,,
290.29,0.0011,121.09,,,,,,,
290.31,0.00107,117.9,,,,,,,
290.34,0.00104,114.79,,,,,,,
290.37,0.00102,111.01,,,,,,,
290.4,0.00099,106.82,,,,,,,
290.43,0.00097,102.49,,,,,,,
290.46,0.00094,98.45,,,,,,,
290.48,0.00092,94.59,,,,,,,
290.5,0.00089,91.0,,,,,,,
290.53,0.00087,87.43,,,,,,,
290.55,0.00084,84.09,,,,,,,
290.58,0.00081,80.74,,,,,,,
290.61,0.00079,76.87,,,,,,,
290.64,0.00076,72.8,,,,,,,
290.67,0.00074,68.49,,,,,,,
290.7,0.00071,64.6,,,,,,,
290.72,0.00069,60.94,,,,,,,
290.74,0.00066,57.36,,,,,,,
290.77,0.00064,53.61,,,,,,,
290.79,0.00061,49.94,,,,,,,
290.82,0.00059,46.03,,,,,,,
290.85,0.00056,42.34,,,,,,,
290.88,0.00054,38.53,,,,,,,
290.91,0.00051,33.92,,,,,,,
290.94,0.00048,29.31,,,,,,,
290.97,0.00046,24.89,,,,,,,
290.99,0.00043,20.62,,,,,,,
291.02,0.00041,16.42,,,,,,,
291.04,0.00038,12.67,,,,,,,
291.07,0.00036,8.85,,,,,,,
291.09,0.00033,4.89,,,,,,,
291.12,0.00031,1.25,,,,,,,
291.15,0.00028,-2.78,,,,,,,
291.18,0.00026,-6.83,,,,,,,
291.2,0.00023,-10.91,,,,,,,
291.23,0.00021,-14.76,,,,,,,
291.25,0.00018,-17.59,,,,,,,
291.36,0.00016,-22.73,,,,,,,
291.37,0.00013,-29.69,,,,,,,
291.39,0.0001,-35.15,,,,,,,
291.4,8e-05,-39.1,,,,,,,
291.41,5e-05,-42.37,,,,,,,
291.42,3e-05,-45.62,,,,,,,
291.43,0.0,-48.19,,,,,,,
291.44,-3e-05,-50.27,,,,,,,
291.45,-5e-05,-51.96,,,,,,,
291.47,-8e-05,-52.88,,,,,,,
291.57,-0.0001,-58.21,,,,,,,
291.6,-0.00013,-62.97,,,,,,,
291.62,-0.00015,-66.75,,,,,,,
291.63,-0.00018,-69.78,,,,,,,
291.65,-0.0002,-72.41,,,,,,,
291.68,-0.00023,-75.11,,,,,,,
291.71,-0.00025,-78.27,,,,,,,
291.75,-0.00028,-82.99,,,,,,,
291.78,-0.0003,-87.33,,,,,,,
291.8,-0.00033,-91.02,,,,,,,
291.83,-0.00036,-94.42,,,,,,,
291.85,-0.00038,-97.34,,,,,,,
291.87,-0.00041,-100.0,,,,,,,
291.9,-0.00043,-102.7,,,,,,,
291.94,-0.00046,-105.8,,,,,,,
291.97,-0.00048,-109.9,,,,,,,
292.0,-0.00051,-114.0,,,,,,,
292.02,-0.00053,-117.8,,,,,,,
292.04,-0.00056,-121.1,,,,,,,
292.06,-0.00058,-124.2,,,,,,,
292.09,-0.00061,-127.6,,,,,,,
292.11,-0.00063,-131.4,,,,,,,
292.13,-0.00066,-135.2,,,,,,,
292.16,-0.00069,-139.0,,,,,,,
292.18,-0.00071,-142.5,,,,,,,
292.2,-0.00074,-145.9,,,,,,,
292.22,-0.00076,-149.1,,,,,,,
292.24,-0.00079,-152.0,,,,,,,
292.26,-0.00081,-155.0,,,,,,,
292.28,-0.00084,-158.0,,,,,,,
292.31,-0.00086,-161.1,,,,,,,
292.33,-0.00089,-164.2,,,,,,,
292.36,-0.00092,-167.3,,,,,,,
292.38,-0.00094,-170.2,,,,,,,
292.41,-0.00097,-173.0,,,,,,,
292.43,-0.00099,-173.9,,,,,,,
292.45,-0.00102,-176.3,,,,,,,
292.47,-0.00105,-177.9,,,,,,,
292.48,-0.00107,-179.3,,,,,,,
292.5,-0.0011,-179.7,,,,,,,
292.51,-0.00113,-180.0,,,,,,,
292.52,-0.00115,-180.1,,,,,,,
292.53,-0.00118,-179.9,,,,,,,
292.67,-0.0012,-181.5,,,,,,,
292.69,-0.00123,-185.4,,,,,,,
292.7,-0.00125,-188.6,,,,,,,
292.72,-0.00128,-190.2,,,,,,,
292.73,-0.00131,-190.8,,,,,,,
292.73,-0.00133,-190.8,,,,,,,
292.74,-0.00136,-190.8,,,,,,,
292.75,-0.00138,-191.2,,,,,,,
292.76,-0.00141,-191.4,,,,,,,
292.91,-0.00144,-193.6,,,,,,,
292.93,-0.00146,-194.5,,,,,,,
293.0,-0.00143,-178.9,,,,,,,
293.01,-0.00141,-174.4,,,,,,,
293.02,-0.00138,-170.5,,,,,,,
293.03,-0.00136,-166.8,,,,,,,
293.04,-0.00133,-163.8,,,,,,,
293.05,-0.0013,-161.1,,,,,,,
293.07,-0.00128,-158.7,,,,,,,
293.09,-0.00125,-156.9,,,,,,,
293.15,-0.00123,-154.4,,,,,,,
293.2,-0.0012,-147.7,,,,,,,
293.22,-0.00118,-143.1,,,,,,,
293.24,-0.00115,-138.9,,,,,,,
293.26,-0.00112,-135.2,,,,,,,
293.28,-0.0011,-132.0,,,,,,,
293.31,-0.00107,-128.9,,,,,,,
293.34,-0.00105,-124.8,,,,,,,
293.37,-0.00102,-121.1,,,,,,,
293.39,-0.001,-117.4,,,,,,,
293.42,-0.00097,-113.6,,,,,,,
293.45,-0.00095,-109.4,,,,,,,
293.48,-0.00092,-105.3,,,,,,,
293.51,-0.00089,-101.4,,,,,,,
293.53,-0.00087,-97.75,,,,,,,
293.55,-0.00084,-94.0,,,,,,,
293.58,-0.00082,-90.38,,,,,,,
293.61,-0.00079,-86.76,,,,,,,
293.63,-0.00077,-83.23,,,,,,,
293.66,-0.00074,-79.68,,,,,,,
293.68,-0.00072,-76.12,,,,,,,
293.71,-0.00069,-72.57,,,,,,,
293.74,-0.00067,-68.69,,,,,,,
293.76,-0.00064,-65.04,,,,,,,
293.79,-0.00062,-61.54,,,,,,,
293.82,-0.00059,-57.92,,,,,,,
293.85,-0.00056,-53.95,,,,,,,
293.87,-0.00054,-50.3,,,,,,,
293.9,-0.00051,-46.71,,,,,,,
293.92,-0.00049,-42.9,,,,,,,
293.95,-0.00046,-39.28,,,,,,,
293.98,-0.00044,-35.72,,,,,,,
294.0,-0.00041,-31.92,,,,,,,
294.03,-0.00039,-28.36,,,,,,,
294.05,-0.00036,-24.91,,,,,,,
294.08,-0.00033,-21.17,,,,,,,
294.11,-0.00031,-17.63,,,,,,,
294.13,-0.00028,-14.06,,,,,,,
294.16,-0.00026,-10.28,,,,,,,
294.19,-0.00023,-6.48,,,,,,,
294.21,-0.00021,-2.85,,,,,,,
294.24,-0.00018,0.81,,,,,,,
294.26,-0.00016,4.21,,,,,,,
294.29,-0.00013,7.74,,,,,,,
294.32,-0.0001,11.47,,,,,,,
294.35,-8e-05,15.21,,,,,,,
588.82,-6e-05,34.05,,,,,,,
588.92,-3e-05,45.47,,,,,,,
588.93,-1e-05,50.93,,,,,,,
588.94,2e-05,55.21,,,,,,,
588.95,4e-05,58.9,,,,,,,
588.96,7e-05,62.28,,,,,,,
588.97,0.0001,65.13,,,,,,,
588.98,0.00012,67.78,,,,,,,
588.99,0.00015,69.81,,,,,,,
589.0,0.00017,71.35,,,,,,,
589.03,0.0002,71.85,,,,,,,
589.14,0.00022,81.7,,,,,,,
589.16,0.00025,86.09,,,,,,,
589.18,0.00027,89.9,,,,,,,
589.19,0.0003,93.1,,,,,,,
589.21,0.00033,96.12,,,,,,,
589.23,0.00035,98.86,,,,,,,
589.26,0.00038,101.56,,,,,,,
589.3,0.0004,105.36,,,,,,,
589.33,0.00043,109.36,,,,,,,
589.36,0.00045,113.19,,,,,,,
589.38,0.00048,116.69,,,,,,,
589.41,0.0005,119.87,,,,,,,
589.43,0.00053,123.01,,,,,,,
589.46,0.00055,125.97,,,,,,,
589.49,0.00058,129.28,,,,,,,
589.52,0.00061,132.56,,,,,,,
589.54,0.00063,135.84,,,,,,,
589.57,0.00066,139.07,,,,,,,
589.59,0.00068,141.97,,,,,,,
589.62,0.00071,144.9,,,,,,,
589.64,0.00073,147.62,,,,,,,
589.67,0.00076,150.25,,,,,,,
589.69,0.00078,152.84,,,,,,,
589.72,0.00081,155.97,,,,,,,
589.75,0.00083,159.66,,,,,,,
589.77,0.00086,163.02,,,,,,,
589.79,0.00088,166.27,,,,,,,
589.81,0.00091,169.23,,,,,,,
589.83,0.00094,172.05,,,,,,,
589.86,0.00096,174.85,,,,,,,
589.87,0.00098,176.94,,,,,,,
589.88,0.00099,177.52,,,,,,,
589.91,0.00101,178.86,,,,,,,
589.92,0.00104,180.55,,,,,,,
589.93,0.00106,182.26,,,,,,,
589.95,0.00109,183.7,,,,,,,
589.96,0.00111,184.63,,,,,,,
589.98,0.00114,185.3,,,,,,,
590.02,0.00117,185.53,,,,,,,
590.08,0.00119,188.22,,,,,,,
590.11,0.00122,189.74,,,,,,,
590.12,0.00125,191.25,,,,,,,
590.12,0.00128,191.94,,,,,,,
590.13,0.0013,192.46,,,,,,,
590.13,0.00133,192.92,,,,,,,
590.13,0.00136,193.28,,,,,,,
590.14,0.00139,193.47,,,,,,,
590.15,0.00142,193.16,,,,,,,
590.21,0.00139,177.49,,,,,,,
590.22,0.00136,174.54,,,,,,,
590.24,0.00134,173.17,,,,,,,
590.3,0.00137,186.33,,,,,,,
590.31,0.00139,190.43,,,,,,,
590.32,0.00142,193.82,,,,,,,
590.33,0.00144,196.58,,,,,,,
590.34,0.00147,198.4,,,,,,,
590.36,0.0015,198.79,,,,,,,
590.42,0.00147,180.27,,,,,,,
590.43,0.00144,175.49,,,,,,,
590.44,0.00142,171.31,,,,,,,
590.45,0.00139,167.58,,,,,,,
590.46,0.00137,164.29,,,,,,,
590.47,0.00134,161.19,,,,,,,
590.48,0.00131,158.57,,,,,,,
590.49,0.00129,156.17,,,,,,,
590.52,0.00126,154.19,,,,,,,
590.6,0.00124,147.96,,,,,,,
590.63,0.00121,142.23,,,,,,,
590.65,0.00119,137.69,,,,,,,
590.67,0.00116,133.57,,,,,,,
590.69,0.00113,129.64,,,,,,,
590.72,0.00111,125.85,,,,,,,
590.74,0.00108,122.11,,,,,,,
590.77,0.00106,118.3,,,,,,,
590.79,0.00103,114.49,,,,,,,
590.82,0.00101,110.51,,,,,,,
590.85,0.00098,106.32,,,,,,,
590.88,0.00096,102.01,,,,,,,
590.91,0.00093,98.0,,,,,,,
590.93,0.00091,93.83,,,,,,,
590.96,0.00088,89.66,,,,,,,
590.99,0.00086,85.67,,,,,,,
591.01,0.00083,81.56,,,,,,,
591.04,0.0008,77.22,,,,,,,
591.07,0.00078,73.14,,,,,,,
591.09,0.00075,69.19,,,,,,,
591.12,0.00073,65.34,,,,,,,
591.14,0.0007,61.49,,,,,,,
591.17,0.00068,57.2,,,,,,,
591.2,0.00065,53.05,,,,,,,
591.23,0.00063,49.01,,,,,,,
591.25,0.0006,45.31,,,,,,,
591.28,0.00057,41.48,,,,,,,
591.3,0.00055,37.74,,,,,,,
591.33,0.00052,33.98,,,,,,,
591.35,0.0005,30.2,,,,,,,
591.38,0.00047,26.32,,,,,,,
591.41,0.00045,22.6,,,,,,,
591.44,0.00042,18.65,,,,,,,
591.47,0.0004,14.43,,,,,,,
591.49,0.00037,10.54,,,,,,,
591.52,0.00035,6.85,,,,,,,
591.54,0.00032,3.41,,,,,,,
591.57,0.0003,0.04,,,,,,,
591.59,0.00027,-3.63,,,,,,,
591.62,0.00024,-6.97,,,,,,,
591.65,0.00022,-10.38,,,,,,,
591.68,0.00019,-14.08,,,,,,,
591.71,0.00017,-15.9,,,,,,,
591.8,0.00014,-22.07,,,,,,,
591.82,0.00012,-28.57,,,,,,,
591.83,9e-05,-34.17,,,,,,,
591.84,6e-05,-38.26,,,,,,,
591.85,4e-05,-41.57,,,,,,,
591.86,1e-05,-44.54,,,,,,,
591.87,-1e-05,-47.03,,,,,,,
591.89,-4e-05,-48.95,,,,,,,
591.9,-7e-05,-50.41,,,,,,,
591.94,-9e-05,-50.62,,,,,,,
592.03,-0.00012,-58.79,,,,,,,
592.05,-0.00014,-63.28,,,,,,,
592.07,-0.00017,-66.82,,,,,,,
592.09,-0.00019,-69.83,,,,,,,
592.11,-0.00022,-72.69,,,,,,,
592.13,-0.00024,-75.45,,,,,,,
592.17,-0.00027,-78.23,,,,,,,
592.2,-0.00029,-81.67,,,,,,,
592.23,-0.00032,-85.13,,,,,,,
592.26,-0.00035,-88.29,,,,,,,
592.28,-0.00037,-91.63,,,,,,,
592.31,-0.0004,-95.26,,,,,,,
592.34,-0.00042,-99.03,,,,,,,
592.37,-0.00045,-102.6,,,,,,,
592.39,-0.00047,-105.8,,,,,,,
592.42,-0.0005,-108.9,,,,,,,
592.45,-0.00052,-112.8,,,,,,,
592.48,-0.00055,-116.9,,,,,,,
592.5,-0.00057,-120.4,,,,,,,
592.53,-0.0006,-124.5,,,,,,,
592.55,-0.00063,-128.6,,,,,,,
592.58,-0.00065,-132.7,,,,,,,
592.6,-0.00068,-136.5,,,,,,,
592.62,-0.0007,-140.2,,,,,,,
592.63,-0.00073,-143.4,,,,,,,
592.66,-0.00075,-146.9,,,,,,,
592.68,-0.00078,-150.1,,,,,,,
592.7,-0.00081,-153.3,,,,,,,
592.72,-0.00083,-156.4,,,,,,,
592.75,-0.00086,-159.8,,,,,,,
592.77,-0.00088,-163.1,,,,,,,
592.79,-0.00091,-166.5,,,,,,,
592.82,-0.00093,-169.8,,,,,,,
592.84,-0.00096,-172.8,,,,,,,
592.86,-0.00098,-175.9,,,,,,,
592.89,-0.00101,-178.6,,,,,,,
592.91,-0.00104,-180.7,,,,,,,
592.92,-0.00106,-181.0,,,,,,,
592.93,-0.00109,-181.6,,,,,,,
592.93,-0.00111,-182.1,,,,,,,
592.94,-0.00114,-182.5,,,,,,,
592.95,-0.00117,-182.7,,,,,,,
592.95,-0.0012,-182.5,,,,,,,
592.97,-0.00122,-180.7,,,,,,,
593.01,-0.0012,-170.0,,,,,,,
593.02,-0.00117,-166.8,,,,,,,
593.04,-0.00115,-165.0,,,,,,,
593.11,-0.00117,-180.6,,,,,,,
593.12,-0.0012,-184.4,,,,,,,
593.13,-0.00122,-187.7,,,,,,,
593.14,-0.00125,-190.6,,,,,,,
593.15,-0.00128,-191.0,,,,,,,
593.16,-0.0013,-193.0,,,,,,,
593.17,-0.00133,-194.1,,,,,,,
593.18,-0.00136,-194.7,,,,,,,
593.19,-0.00139,-195.1,,,,,,,
593.2,-0.00141,-194.8,,,,,,,
593.35,-0.00144,-196.9,,,,,,,
593.36,-0.00146,-197.9,,,,,,,
593.44,-0.00144,-180.6,,,,,,,
593.45,-0.00141,-175.9,,,,,,,
593.46,-0.00138,-171.8,,,,,,,
593.47,-0.00136,-168.1,,,,,,,
593.48,-0.00133,-165.1,,,,,,,
593.49,-0.00131,-162.4,,,,,,,
593.51,-0.00128,-159.9,,,,,,,
593.53,-0.00125,-157.8,,,,,,,
593.6,-0.00123,-153.7,,,,,,,
593.64,-0.0012,-147.1,,,,,,,
593.66,-0.00118,-142.0,,,,,,,
593.68,-0.00115,-137.6,,,,,,,
593.7,-0.00113,-133.6,,,,,,,
593.72,-0.0011,-130.2,,,,,,,
593.74,-0.00108,-126.8,,,,,,,
593.77,-0.00105,-123.3,,,,,,,
593.8,-0.00103,-119.4,,,,,,,
593.84,-0.001,-114.8,,,,,,,
593.87,-0.00098,-110.4,,,,,,,
593.89,-0.00095,-106.1,,,,,,,
593.92,-0.00092,-102.3,,,,,,,
593.94,-0.0009,-98.51,,,,,,,
593.96,-0.00087,-94.73,,,,,,,
593.99,-0.00085,-91.07,,,,,,,
594.01,-0.00082,-87.53,,,,,,,
594.04,-0.0008,-83.59,,,,,,,
594.07,-0.00077,-79.82,,,,,,,
594.1,-0.00074,-76.01,,,,,,,
594.12,-0.00072,-72.06,,,,,,,
594.15,-0.00069,-67.96,,,,,,,
594.18,-0.00067,-63.62,,,,,,,
594.21,-0.00064,-59.23,,,,,,,
594.24,-0.00062,-55.24,,,,,,,
594.26,-0.00059,-51.18,,,,,,,
594.29,-0.00057,-47.31,,,,,,,
594.31,-0.00054,-43.58,,,,,,,
594.33,-0.00051,-40.06,,,,,,,
594.36,-0.00049,-36.5,,,,,,,
594.39,-0.00046,-32.64,,,,,,,
594.42,-0.00044,-27.94,,,,,,,
594.46,-0.00041,-22.95,,,,,,,
594.48,-0.00039,-18.45,,,,,,,
594.5,-0.00036,-14.38,,,,,,,
594.53,-0.00034,-10.73,,,,,,,
594.55,-0.00031,-7.15,,,,,,,
594.57,-0.00028,-3.7,,,,,,,
594.6,-0.00026,-0.24,,,,,,,
594.62,-0.00023,2.72,,,,,,,
594.65,-0.00021,5.8,,,,,,,
594.68,-0.00018,9.43,,,,,,,
594.71,-0.00016,13.13,,,,,,,
594.74,-0.00013,16.93,,,,,,,
594.76,-0.00011,20.59,,,,,,,
594.79,-8e-05,24.09,,,,,,,
1189.69,-5e-05,30.78,,,,,,,
1189.73,-3e-05,32.59,,,,,,,
1189.83,-0.0,41.22,,,,,,,
1189.84,2e-05,47.37,,,,,,,
1189.85,5e-05,51.96,,,,,,,
1189.86,8e-05,55.76,,,,,,,
1189.87,0.0001,58.85,,,,,,,
1189.87,0.00011,59.15,,,,,,,
1189.88,0.00013,61.95,,,,,,,
1189.89,0.00016,64.38,,,,,,,
1189.9,0.00018,66.54,,,,,,,
1189.92,0.00021,67.96,,,,,,,
1189.94,0.00023,68.35,,,,,,,
1190.06,0.00026,76.32,,,,,,,
1190.08,0.00029,80.77,,,,,,,
1190.09,0.00031,84.58,,,,,,,
1190.11,0.00034,87.78,,,,,,,
1190.13,0.00036,90.79,,,,,,,
1190.15,0.00039,93.56,,,,,,,
1190.18,0.00041,96.12,,,,,,,
1190.21,0.00044,99.21,,,,,,,
1190.25,0.00046,102.92,,,,,,,
1190.28,0.00049,106.67,,,,,,,
1190.31,0.00051,110.51,,,,,,,
1190.33,0.00054,113.97,,,,,,,
1190.35,0.00057,116.95,,,,,,,
1190.38,0.00059,119.84,,,,,,,
1190.4,0.00062,122.8,,,,,,,
1190.43,0.00064,125.93,,,,,,,
1190.46,0.00067,129.2,,,,,,,
1190.5,0.00069,132.81,,,,,,,
1190.52,0.00072,136.41,,,,,,,
1190.55,0.00075,139.9,,,,,,,
1190.57,0.00077,143.23,,,,,,,
1190.6,0.0008,146.46,,,,,,,
1190.62,0.00082,149.62,,,,,,,
1190.65,0.00085,152.9,,,,,,,
1190.67,0.00087,156.26,,,,,,,
1190.7,0.0009,159.92,,,,,,,
1190.72,0.00092,163.44,,,,,,,
1190.74,0.00095,166.75,,,,,,,
1190.76,0.00098,170.04,,,,,,,
1190.79,0.001,173.24,,,,,,,
1190.81,0.00103,176.24,,,,,,,
1190.83,0.00105,179.39,,,,,,,
1190.86,0.00108,182.42,,,,,,,
1190.88,0.0011,183.64,,,,,,,
1190.89,0.00113,185.31,,,,,,,
1190.9,0.00116,186.33,,,,,,,
1190.91,0.00119,187.26,,,,,,,
1190.92,0.00121,187.97,,,,,,,
1190.92,0.00124,188.27,,,,,,,
1190.94,0.00126,188.05,,,,,,,
1191.08,0.00129,190.16,,,,,,,
1191.1,0.00132,193.75,,,,,,,
1191.11,0.00134,196.79,,,,,,,
1191.12,0.00137,197.66,,,,,,,
1191.13,0.0014,198.75,,,,,,,
1191.13,0.00143,199.27,,,,,,,
1191.14,0.00146,199.79,,,,,,,
1191.14,0.00148,200.11,,,,,,,
1191.15,0.00151,200.12,,,,,,,
1191.16,0.00154,199.8,,,,,,,
1191.17,0.00156,198.8,,,,,,,
1191.22,0.00154,181.25,,,,,,,
1191.23,0.00151,176.96,,,,,,,
1191.24,0.00148,173.23,,,,,,,
1191.25,0.00146,169.68,,,,,,,
1191.26,0.00143,166.36,,,,,,,
1191.27,0.0014,163.48,,,,,,,
1191.29,0.00138,161.03,,,,,,,
1191.31,0.00135,158.86,,,,,,,
1191.39,0.00133,152.31,,,,,,,
1191.42,0.0013,146.51,,,,,,,
1191.44,0.00128,141.83,,,,,,,
1191.46,0.00125,137.85,,,,,,,
1191.48,0.00123,133.97,,,,,,,
1191.5,0.0012,130.13,,,,,,,
1191.53,0.00118,126.46,,,,,,,
1191.55,0.00115,122.84,,,,,,,
1191.58,0.00112,118.97,,,,,,,
1191.61,0.0011,114.85,,,,,,,
1191.64,0.00107,110.56,,,,,,,
1191.67,0.00105,106.6,,,,,,,
1191.7,0.00102,102.67,,,,,,,
1191.72,0.001,98.71,,,,,,,
1191.75,0.00097,94.72,,,,,,,
1191.78,0.00095,90.7,,,,,,,
1191.8,0.00092,86.8,,,,,,,
1191.83,0.0009,83.12,,,,,,,
1191.85,0.00087,79.49,,,,,,,
1191.88,0.00085,75.97,,,,,,,
1191.9,0.00082,72.42,,,,,,,
1191.93,0.00079,68.67,,,,,,,
1191.96,0.00077,64.85,,,,,,,
1191.98,0.00074,60.73,,,,,,,
1192.01,0.00072,56.74,,,,,,,
1192.03,0.00069,53.17,,,,,,,
1192.06,0.00067,49.34,,,,,,,
1192.09,0.00064,45.56,,,,,,,
1192.12,0.00062,41.64,,,,,,,
1192.14,0.00059,37.73,,,,,,,
1192.17,0.00056,33.92,,,,,,,
1192.19,0.00054,30.44,,,,,,,
1192.22,0.00051,26.72,,,,,,,
1192.25,0.00049,23.0,,,,,,,
1192.27,0.00046,19.34,,,,,,,
1192.3,0.00044,15.62,,,,,,,
1192.33,0.00041,11.99,,,,,,,
1192.35,0.00039,8.46,,,,,,,
1192.38,0.00036,4.72,,,,,,,
1192.41,0.00034,0.97,,,,,,,
1192.43,0.00031,-2.64,,,,,,,
1192.46,0.00029,-6.11,,,,,,,
1192.49,0.00026,-9.68,,,,,,,
1192.51,0.00023,-13.51,,,,,,,
1192.54,0.00021,-15.94,,,,,,,
1192.64,0.00018,-21.15,,,,,,,
1192.66,0.00016,-27.42,,,,,,,
1192.68,0.00013,-32.48,,,,,,,
1192.69,0.00011,-36.7,,,,,,,
1192.7,8e-05,-40.19,,,,,,,
1192.71,5e-05,-43.12,,,,,,,
1192.72,3e-05,-45.68,,,,,,,
1192.73,0.0,-47.79,,,,,,,
1192.74,-2e-05,-49.29,,,,,,,
1192.77,-5e-05,-49.95,,,,,,,
1192.87,-7e-05,-55.82,,,,,,,
1192.89,-0.0001,-60.04,,,,,,,
1192.91,-0.00012,-63.71,,,,,,,
1192.93,-0.00015,-67.08,,,,,,,
1192.95,-0.00018,-70.03,,,,,,,
1192.98,-0.0002,-73.13,,,,,,,
1193.01,-0.00023,-76.57,,,,,,,
1193.04,-0.00025,-80.17,,,,,,,
1193.07,-0.00028,-83.78,,,,,,,
1193.1,-0.0003,-87.52,,,,,,,
1193.12,-0.00033,-90.98,,,,,,,
1193.15,-0.00035,-94.33,,,,,,,
1193.17,-0.00038,-97.43,,,,,,,
1193.2,-0.0004,-100.3,,,,,,,
1193.23,-0.00043,-103.6,,,,,,,
1193.26,-0.00045,-107.5,,,,,,,
1193.29,-0.00048,-111.5,,,,,,,
1193.31,-0.0005,-114.9,,,,,,,
1193.34,-0.00053,-118.5,,,,,,,
1193.36,-0.00056,-121.9,,,,,,,
1193.39,-0.00058,-125.6,,,,,,,
1193.41,-0.00061,-129.8,,,,,,,
1193.43,-0.00063,-133.6,,,,,,,
1193.46,-0.00066,-137.3,,,,,,,
1193.47,-0.00068,-140.8,,,,,,,
1193.49,-0.00071,-143.9,,,,,,,
1193.51,-0.00074,-147.2,,,,,,,
1193.53,-0.00076,-150.5,,,,,,,
1193.55,-0.00079,-153.4,,,,,,,
1193.58,-0.00081,-156.3,,,,,,,
1193.6,-0.00084,-159.6,,,,,,,
1193.63,-0.00086,-162.7,,,,,,,
1193.65,-0.00089,-165.5,,,,,,,
1193.67,-0.00091,-168.2,,,,,,,
1193.7,-0.00094,-171.3,,,,,,,
1193.73,-0.00097,-174.4,,,,,,,
1193.75,-0.00099,-177.3,,,,,,,
1193.78,-0.00102,-180.6,,,,,,,
1193.8,-0.00104,-183.1,,,,,,,
1193.82,-0.00107,-183.5,,,,,,,
1193.83,-0.0011,-184.3,,,,,,,
1193.83,-0.00113,-184.8,,,,,,,
1193.84,-0.00116,-185.3,,,,,,,
1193.84,-0.00118,-185.7,,,,,,,
1193.85,-0.00121,-185.8,,,,,,,
1193.86,-0.00123,-185.3,,,,,,,
1193.91,-0.00121,-170.9,,,,,,,
1193.92,-0.00118,-168.2,,,,,,,
1193.94,-0.00116,-167.1,,,,,,,
1194.0,-0.00118,-179.9,,,,,,,
1194.01,-0.00121,-184.1,,,,,,,
1194.02,-0.00123,-187.7,,,,,,,
1194.03,-0.00126,-190.6,,,,,,,
1194.04,-0.00129,-193.2,,,,,,,
1194.05,-0.00131,-195.1,,,,,,,
1194.06,-0.00134,-194.9,,,,,,,
1194.07,-0.00136,-195.7,,,,,,,
1194.08,-0.00139,-196.0,,,,,,,
1194.09,-0.00142,-196.2,,,,,,,
1194.1,-0.00145,-195.9,,,,,,,
1194.17,-0.00142,-184.2,,,,,,,
1194.25,-0.00145,-191.3,,,,,,,
1194.33,-0.00142,-176.1,,,,,,,
1194.34,-0.00139,-171.4,,,,,,,
1194.35,-0.00137,-167.3,,,,,,,
1194.36,-0.00134,-164.0,,,,,,,
1194.38,-0.00132,-160.9,,,,,,,
1194.39,-0.00129,-157.9,,,,,,,
1194.41,-0.00126,-155.3,,,,,,,
1194.46,-0.00124,-151.9,,,,,,,
1194.51,-0.00121,-145.7,,,,,,,
1194.54,-0.00119,-140.5,,,,,,,
1194.56,-0.00116,-135.9,,,,,,,
1194.58,-0.00114,-131.6,,,,,,,
1194.6,-0.00111,-127.6,,,,,,,
1194.63,-0.00108,-123.8,,,,,,,
1194.65,-0.00106,-119.8,,,,,,,
1194.68,-0.00103,-115.7,,,,,,,
1194.71,-0.00101,-111.3,,,,,,,
1194.74,-0.00098,-106.8,,,,,,,
1194.77,-0.00096,-102.2,,,,,,,
1194.79,-0.00093,-98.27,,,,,,,
1194.82,-0.00091,-94.4,,,,,,,
1194.84,-0.00088,-90.59,,,,,,,
1194.87,-0.00086,-86.96,,,,,,,
1194.89,-0.00083,-83.17,,,,,,,
1194.92,-0.0008,-79.28,,,,,,,
1194.95,-0.00078,-75.31,,,,,,,
1194.98,-0.00075,-70.94,,,,,,,
1195.01,-0.00073,-66.45,,,,,,,
1195.03,-0.0007,-62.1,,,,,,,
1195.06,-0.00068,-57.96,,,,,,,
1195.08,-0.00065,-53.75,,,,,,,
1195.11,-0.00063,-49.38,,,,,,,
1195.13,-0.0006,-45.38,,,,,,,
1195.16,-0.00057,-41.62,,,,,,,
1195.18,-0.00055,-38.24,,,,,,,
1195.2,-0.00052,-34.86,,,,,,,
1195.23,-0.0005,-31.22,,,,,,,
1195.26,-0.00047,-27.55,,,,,,,
1195.29,-0.00045,-23.72,,,,,,,
1195.32,-0.00042,-19.74,,,,,,,
1195.34,-0.0004,-15.96,,,,,,,
1195.37,-0.00037,-12.07,,,,,,,
1195.39,-0.00035,-8.5,,,,,,,
1195.42,-0.00032,-5.02,,,,,,,
1195.45,-0.00029,-1.68,,,,,,,
1195.48,-0.00027,1.82,,,,,,,
1195.51,-0.00024,5.68,,,,,,,
1195.54,-0.00022,10.32,,,,,,,
1195.56,-0.00019,14.34,,,,,,,
1195.59,-0.00017,18.11,,,,,,,
1195.61,-0.00014,21.57,,,,,,,
1195.64,-0.00011,25.18,,,,,,,
1195.66,-9e-05,28.32,,,,,,,
1195.68,-6e-05,31.15,,,,,,,
2992.34,-4e-05,16.96,,,,,,,
2992.37,-2e-05,20.58,,,,,,,
2992.39,1e-05,23.95,,,,,,,
2992.42,3e-05,27.38,,,,,,,
2992.45,6e-05,30.56,,,,,,,
2992.48,8e-05,31.98,,,,,,,
2992.58,0.00011,43.52,,,,,,,
2992.59,0.00014,49.16,,,,,,,
2992.6,0.00016,53.5,,,,,,,
2992.61,0.00019,56.98,,,,,,,
2992.62,0.00021,60.32,,,,,,,
2992.63,0.00024,63.2,,,,,,,
2992.64,0.00027,65.73,,,,,,,
2992.65,0.00029,67.85,,,,,,,
2992.67,0.00032,69.38,,,,,,,
2992.69,0.00034,69.93,,,,,,,
2992.8,0.00037,76.41,,,,,,,
2992.82,0.00039,80.75,,,,,,,
2992.84,0.00042,84.44,,,,,,,
2992.86,0.00045,87.68,,,,,,,
2992.88,0.00047,90.68,,,,,,,
2992.9,0.0005,93.49,,,,,,,
2992.93,0.00052,96.35,,,,,,,
2992.96,0.00055,99.74,,,,,,,
2993.0,0.00057,103.58,,,,,,,
2993.03,0.0006,107.47,,,,,,,
2993.05,0.00062,111.09,,,,,,,
2993.08,0.00065,114.6,,,,,,,
2993.1,0.00067,117.68,,,,,,,
2993.13,0.0007,120.86,,,,,,,
2993.15,0.00073,123.84,,,,,,,
2993.18,0.00075,127.05,,,,,,,
2993.21,0.00078,130.44,,,,,,,
2993.24,0.0008,134.19,,,,,,,
2993.27,0.00083,137.9,,,,,,,
2993.29,0.00085,141.52,,,,,,,
2993.32,0.00088,144.83,,,,,,,
2993.34,0.0009,147.89,,,,,,,
2993.37,0.00093,151.08,,,,,,,
2993.39,0.00095,154.26,,,,,,,
2993.42,0.00098,157.88,,,,,,,
2993.45,0.00101,161.71,,,,,,,
2993.47,0.00103,165.22,,,,,,,
2993.49,0.00106,168.66,,,,,,,
2993.51,0.00108,172.13,,,,,,,
2993.53,0.00111,175.33,,,,,,,
2993.55,0.00114,178.23,,,,,,,
2993.57,0.00116,180.95,,,,,,,
2993.59,0.00119,183.69,,,,,,,
2993.62,0.00121,186.66,,,,,,,
2993.64,0.00124,189.5,,,,,,,
2993.67,0.00126,192.01,,,,,,,
2993.69,0.00129,193.08,,,,,,,
2993.7,0.00131,193.83,,,,,,,
2993.7,0.00134,194.55,,,,,,,
2993.71,0.00137,194.67,,,,,,,
2993.72,0.0014,194.82,,,,,,,
2993.73,0.00142,194.64,,,,,,,
2993.74,0.00145,193.68,,,,,,,
2993.8,0.00142,183.07,,,,,,,
2993.91,0.00145,188.04,,,,,,,
2993.96,0.00142,177.09,,,,,,,
2993.97,0.0014,172.03,,,,,,,
2993.99,0.00137,167.76,,,,,,,
2994.0,0.00135,163.76,,,,,,,
2994.02,0.00132,160.35,,,,,,,
2994.04,0.00129,157.0,,,,,,,
2994.06,0.00127,153.86,,,,,,,
2994.08,0.00124,150.57,,,,,,,
2994.12,0.00122,146.29,,,,,,,
2994.16,0.00119,140.81,,,,,,,
2994.19,0.00117,135.77,,,,,,,
2994.22,0.00114,131.14,,,,,,,
2994.24,0.00112,126.97,,,,,,,
2994.26,0.00109,123.1,,,,,,,
2994.29,0.00106,118.77,,,,,,,
2994.31,0.00104,115.05,,,,,,,
2994.34,0.00101,111.28,,,,,,,
2994.36,0.00099,107.45,,,,,,,
2994.39,0.00096,103.79,,,,,,,
2994.42,0.00094,100.24,,,,,,,
2994.44,0.00091,96.36,,,,,,,
2994.47,0.00089,92.32,,,,,,,
2994.5,0.00086,88.2,,,,,,,
2994.52,0.00084,84.49,,,,,,,
2994.55,0.00081,80.79,,,,,,,
2994.57,0.00078,77.24,,,,,,,
2994.6,0.00076,73.49,,,,,,,
2994.63,0.00073,69.65,,,,,,,
2994.66,0.00071,65.83,,,,,,,
2994.68,0.00068,61.89,,,,,,,
2994.71,0.00066,57.71,,,,,,,
2994.74,0.00063,53.77,,,,,,,
2994.76,0.00061,49.97,,,,,,,
2994.79,0.00058,46.0,,,,,,,
2994.82,0.00055,42.09,,,,,,,
2994.84,0.00053,38.13,,,,,,,
2994.87,0.0005,34.03,,,,,,,
2994.9,0.00048,29.68,,,,,,,
2994.93,0.00045,25.88,,,,,,,
2994.95,0.00043,21.7,,,,,,,
2994.98,0.0004,17.45,,,,,,,
2995.0,0.00038,13.77,,,,,,,
2995.03,0.00035,10.21,,,,,,,
2995.05,0.00033,6.87,,,,,,,
2995.08,0.0003,3.73,,,,,,,
2995.1,0.00027,0.45,,,,,,,
2995.13,0.00025,-3.05,,,,,,,
2995.16,0.00022,-6.54,,,,,,,
2995.19,0.0002,-10.21,,,,,,,
2995.21,0.00017,-13.75,,,,,,,
2995.24,0.00015,-15.71,,,,,,,
2995.34,0.00012,-21.57,,,,,,,
2995.36,0.0001,-27.59,,,,,,,
2995.37,7e-05,-33.02,,,,,,,
2995.39,4e-05,-37.05,,,,,,,
2995.4,2e-05,-40.65,,,,,,,
2995.41,-1e-05,-43.46,,,,,,,
2995.42,-3e-05,-45.99,,,,,,,
2995.43,-6e-05,-47.94,,,,,,,
2995.45,-9e-05,-49.41,,,,,,,
2995.53,-0.00011,-51.73,,,,,,,
2995.57,-0.00014,-57.99,,,,,,,
2995.59,-0.00016,-62.01,,,,,,,
2995.61,-0.00019,-65.75,,,,,,,
2995.63,-0.00021,-68.88,,,,,,,
2995.65,-0.00024,-71.83,,,,,,,
2995.68,-0.00026,-74.76,,,,,,,
2995.71,-0.00029,-78.02,,,,,,,
2995.75,-0.00031,-81.66,,,,,,,
2995.78,-0.00034,-85.43,,,,,,,
2995.81,-0.00037,-89.59,,,,,,,
2995.83,-0.00039,-93.18,,,,,,,
2995.85,-0.00042,-96.44,,,,,,,
2995.88,-0.00044,-99.52,,,,,,,
2995.9,-0.00047,-102.4,,,,,,,
2995.93,-0.00049,-105.5,,,,,,,
2995.96,-0.00052,-108.7,,,,,,,
2995.99,-0.00054,-111.8,,,,,,,
2996.02,-0.00057,-115.1,,,,,,,
2996.04,-0.00059,-118.8,,,,,,,
2996.07,-0.00062,-122.2,,,,,,,
2996.09,-0.00065,-125.6,,,,,,,
2996.11,-0.00067,-129.1,,,,,,,
2996.13,-0.0007,-132.4,,,,,,,
2996.15,-0.00072,-135.7,,,,,,,
2996.17,-0.00075,-139.1,,,,,,,
2996.19,-0.00077,-142.3,,,,,,,
2996.21,-0.0008,-145.4,,,,,,,
2996.24,-0.00083,-148.6,,,,,,,
2996.26,-0.00085,-152.1,,,,,,,
2996.29,-0.00088,-155.7,,,,,,,
2996.31,-0.0009,-159.2,,,,,,,
2996.33,-0.00093,-162.5,,,,,,,
2996.36,-0.00095,-165.4,,,,,,,
2996.38,-0.00098,-168.5,,,,,,,
2996.41,-0.00101,-171.5,,,,,,,
2996.43,-0.00103,-174.8,,,,,,,
2996.46,-0.00106,-178.1,,,,,,,
2996.48,-0.00108,-181.5,,,,,,,
2996.5,-0.00111,-184.3,,,,,,,
2996.53,-0.00113,-186.7,,,,,,,
2996.55,-0.00116,-188.2,,,,,,,
2996.56,-0.00119,-189.4,,,,,,,
2996.57,-0.00121,-190.1,,,,,,,
2996.58,-0.00124,-190.1,,,,,,,
2996.59,-0.00126,-190.1,,,,,,,
2996.61,-0.00129,-189.4,,,,,,,
2996.75,-0.00131,-193.3,,,,,,,
2996.76,-0.00134,-196.9,,,,,,,
2996.77,-0.00137,-199.7,,,,,,,
2996.79,-0.00139,-201.1,,,,,,,
2996.8,-0.00142,-201.2,,,,,,,
2996.8,-0.00145,-201.5,,,,,,,
2996.81,-0.00147,-201.7,,,,,,,
2996.81,-0.0015,-201.8,,,,,,,
2996.81,-0.00153,-201.9,,,,,,,
2996.82,-0.00155,-201.7,,,,,,,
2996.82,-0.00158,-201.4,,,,,,,
2996.83,-0.00161,-200.9,,,,,,,
2996.84,-0.00163,-199.3,,,,,,,
2996.88,-0.00161,-177.1,,,,,,,
2996.88,-0.00158,-171.3,,,,,,,
2996.89,-0.00155,-166.2,,,,,,,
2996.9,-0.00152,-162.0,,,,,,,
2996.9,-0.0015,-158.0,,,,,,,
2996.91,-0.00147,-154.5,,,,,,,
2996.92,-0.00144,-151.2,,,,,,,
2996.92,-0.00141,-148.3,,,,,,,
2996.93,-0.00139,-145.8,,,,,,,
2996.93,-0.00136,-143.5,,,,,,,
2996.94,-0.00134,-141.5,,,,,,,
2996.95,-0.00131,-140.2,,,,,,,
2996.96,-0.00128,-139.8,,,,,,,
2997.03,-0.00131,-147.1,,,,,,,
2997.11,-0.00128,-133.8,,,,,,,
2997.12,-0.00126,-129.6,,,,,,,
2997.13,-0.00123,-125.8,,,,,,,
2997.15,-0.00121,-122.5,,,,,,,
2997.16,-0.00118,-119.5,,,,,,,
2997.17,-0.00116,-116.9,,,,,,,
2997.19,-0.00113,-114.4,,,,,,,
2997.23,-0.00111,-111.8,,,,,,,
2997.27,-0.00108,-107.7,,,,,,,
2997.31,-0.00106,-102.7,,,,,,,
2997.34,-0.00103,-98.31,,,,,,,
2997.36,-0.001,-94.4,,,,,,,
2997.38,-0.00098,-90.63,,,,,,,
2997.41,-0.00095,-86.98,,,,,,,
2997.43,-0.00093,-83.1,,,,,,,
2997.46,-0.0009,-79.22,,,,,,,
2997.49,-0.00088,-75.26,,,,,,,
2997.51,-0.00085,-71.28,,,,,,,
2997.54,-0.00083,-67.09,,,,,,,
2997.57,-0.0008,-62.86,,,,,,,
2997.6,-0.00077,-58.79,,,,,,,
2997.62,-0.00075,-54.52,,,,,,,
2997.65,-0.00072,-50.53,,,,,,,
2997.67,-0.0007,-46.79,,,,,,,
2997.7,-0.00067,-42.89,,,,,,,
2997.72,-0.00065,-39.18,,,,,,,
2997.75,-0.00062,-35.58,,,,,,,
2997.78,-0.0006,-31.88,,,,,,,
2997.8,-0.00057,-28.17,,,,,,,
2997.83,-0.00054,-24.54,,,,,,,
2997.86,-0.00052,-20.35,,,,,,,
2997.88,-0.00049,-16.76,,,,,,,
2997.91,-0.00047,-13.3,,,,,,,
2997.93,-0.00044,-9.36,,,,,,,
2997.96,-0.00042,-5.56,,,,,,,
2997.99,-0.00039,-1.91,,,,,,,
2998.01,-0.00037,1.62,,,,,,,
2998.04,-0.00034,4.9,,,,,,,
2998.07,-0.00032,8.49,,,,,,,
2998.09,-0.00029,12.45,,,,,,,
2998.12,-0.00027,16.46,,,,,,,
2998.15,-0.00024,20.48,,,,,,,
2998.18,-0.00021,24.31,,,,,,,
2998.2,-0.00019,28.2,,,,,,,
2998.23,-0.00016,31.8,,,,,,,
2998.26,-0.00014,33.48,,,,,,,
5996.74,-4e-05,27.4,,,,,,,
5996.77,-2e-05,30.32,,,,,,,
5996.8,1e-05,32.35,,,,,,,
5996.91,3e-05,41.85,,,,,,,
5996.92,6e-05,47.78,,,,,,,
5996.93,9e-05,52.03,,,,,,,
5996.94,0.00011,55.5,,,,,,,
5996.95,0.00014,58.65,,,,,,,
5996.96,0.00016,61.47,,,,,,,
5996.97,0.00019,64.0,,,,,,,
5996.98,0.00022,65.96,,,,,,,
5996.99,0.00024,67.45,,,,,,,
5997.02,0.00027,67.75,,,,,,,
5997.12,0.00029,75.36,,,,,,,
5997.14,0.00032,79.23,,,,,,,
5997.16,0.00034,82.86,,,,,,,
5997.18,0.00037,85.97,,,,,,,
5997.2,0.00039,88.81,,,,,,,
5997.22,0.00042,91.39,,,,,,,
5997.25,0.00044,94.17,,,,,,,
5997.29,0.00047,97.24,,,,,,,
5997.32,0.0005,100.9,,,,,,,
5997.35,0.00052,104.7,,,,,,,
5997.37,0.00055,108.12,,,,,,,
5997.4,0.00057,111.35,,,,,,,
5997.42,0.0006,114.57,,,,,,,
5997.45,0.00062,117.7,,,,,,,
5997.48,0.00065,120.86,,,,,,,
5997.51,0.00067,124.2,,,,,,,
5997.54,0.0007,127.45,,,,,,,
5997.56,0.00073,130.52,,,,,,,
5997.59,0.00075,133.75,,,,,,,
5997.61,0.00078,136.74,,,,,,,
5997.64,0.0008,139.58,,,,,,,
5997.67,0.00083,142.95,,,,,,,
5997.7,0.00085,145.95,,,,,,,
5997.72,0.00088,148.83,,,,,,,
5997.75,0.0009,152.15,,,,,,,
5997.77,0.00093,155.79,,,,,,,
5997.79,0.00095,158.98,,,,,,,
5997.81,0.00098,162.13,,,,,,,
5997.83,0.001,165.3,,,,,,,
5997.85,0.00103,168.26,,,,,,,
5997.88,0.00106,171.15,,,,,,,
5997.9,0.00108,174.07,,,,,,,
5997.92,0.00111,176.8,,,,,,,
5997.95,0.00113,179.77,,,,,,,
5997.97,0.00116,182.7,,,,,,,
5997.99,0.00118,185.46,,,,,,,
5998.01,0.00121,188.02,,,,,,,
5998.04,0.00123,189.68,,,,,,,
5998.05,0.00126,190.91,,,,,,,
5998.06,0.00129,191.75,,,,,,,
5998.07,0.00131,192.4,,,,,,,
5998.08,0.00134,192.86,,,,,,,
5998.11,0.00136,192.18,,,,,,,
5998.22,0.00139,195.68,,,,,,,
5998.24,0.00141,199.65,,,,,,,
5998.25,0.00144,200.07,,,,,,,
5998.26,0.00147,200.79,,,,,,,
5998.26,0.0015,201.09,,,,,,,
5998.27,0.00152,201.32,,,,,,,
5998.27,0.00155,201.4,,,,,,,
5998.27,0.00158,201.39,,,,,,,
5998.28,0.00161,201.18,,,,,,,
5998.28,0.00163,200.46,,,,,,,
5998.29,0.00166,198.39,,,,,,,
5998.32,0.00163,176.69,,,,,,,
5998.33,0.00161,170.16,,,,,,,
5998.33,0.00158,164.55,,,,,,,
5998.34,0.00155,159.91,,,,,,,
5998.34,0.00152,155.44,,,,,,,
5998.35,0.0015,151.12,,,,,,,
5998.35,0.00147,147.08,,,,,,,
5998.36,0.00144,143.31,,,,,,,
5998.36,0.00141,139.92,,,,,,,
5998.37,0.00138,136.9,,,,,,,
5998.37,0.00135,134.33,,,,,,,
5998.38,0.00133,132.09,,,,,,,
5998.38,0.0013,130.06,,,,,,,
5998.39,0.00127,128.44,,,,,,,
5998.4,0.00124,127.48,,,,,,,
5998.41,0.00122,127.58,,,,,,,
5998.46,0.00124,138.91,,,,,,,
5998.47,0.00127,141.04,,,,,,,
5998.49,0.00129,141.36,,,,,,,
5998.55,0.00127,128.07,,,,,,,
5998.56,0.00124,123.45,,,,,,,
5998.57,0.00122,119.25,,,,,,,
5998.58,0.00119,115.89,,,,,,,
5998.59,0.00116,112.84,,,,,,,
5998.6,0.00114,109.91,,,,,,,
5998.62,0.00111,107.46,,,,,,,
5998.64,0.00109,105.45,,,,,,,
5998.68,0.00106,103.06,,,,,,,
5998.73,0.00104,96.76,,,,,,,
5998.76,0.00101,92.35,,,,,,,
5998.78,0.00099,88.08,,,,,,,
5998.81,0.00096,84.39,,,,,,,
5998.83,0.00093,80.97,,,,,,,
5998.85,0.00091,77.4,,,,,,,
5998.88,0.00088,73.99,,,,,,,
5998.9,0.00086,70.42,,,,,,,
5998.93,0.00083,66.7,,,,,,,
5998.96,0.00081,62.88,,,,,,,
5998.99,0.00078,58.99,,,,,,,
5999.02,0.00076,55.13,,,,,,,
5999.04,0.00073,51.28,,,,,,,
5999.07,0.00071,47.35,,,,,,,
5999.09,0.00068,43.73,,,,,,,
5999.12,0.00065,40.05,,,,,,,
5999.15,0.00063,36.37,,,,,,,
5999.17,0.0006,32.67,,,,,,,
5999.2,0.00058,29.04,,,,,,,
5999.23,0.00055,25.33,,,,,,,
5999.25,0.00053,21.7,,,,,,,
5999.28,0.0005,17.86,,,,,,,
5999.31,0.00048,14.03,,,,,,,
5999.33,0.00045,10.4,,,,,,,
5999.36,0.00043,6.63,,,,,,,
5999.39,0.0004,2.73,,,,,,,
5999.41,0.00037,-0.9,,,,,,,
5999.43,0.00035,-4.41,,,,,,,
5999.46,0.00032,-7.79,,,,,,,
5999.48,0.0003,-10.81,,,,,,,
5999.51,0.00027,-14.13,,,,,,,
5999.55,0.00025,-15.17,,,,,,,
5999.65,0.00022,-24.02,,,,,,,
5999.66,0.0002,-29.66,,,,,,,
5999.67,0.00017,-34.33,,,,,,,
5999.68,0.00014,-37.93,,,,,,,
5999.69,0.00012,-41.04,,,,,,,
5999.7,9e-05,-43.71,,,,,,,
5999.71,6e-05,-46.02,,,,,,,
5999.73,4e-05,-47.69,,,,,,,
5999.75,1e-05,-48.57,,,,,,,
5999.84,-1e-05,-51.41,,,,,,,
5999.87,-4e-05,-56.26,,,,,,,
5999.89,-7e-05,-60.18,,,,,,,
5999.91,-9e-05,-63.47,,,,,,,
5999.93,-0.00012,-66.54,,,,,,,
5999.96,-0.00014,-69.3,,,,,,,
5999.98,-0.00017,-71.87,,,,,,,
6000.01,-0.00019,-74.79,,,,,,,
6000.05,-0.00022,-78.16,,,,,,,
6000.08,-0.00024,-81.88,,,,,,,
6000.1,-0.00027,-85.65,,,,,,,
6000.13,-0.0003,-88.87,,,,,,,
6000.15,-0.00032,-91.91,,,,,,,
6000.18,-0.00035,-94.88,,,,,,,
6000.21,-0.00037,-98.04,,,,,,,
6000.24,-0.0004,-101.1,,,,,,,
6000.27,-0.00042,-104.7,,,,,,,
6000.3,-0.00045,-108.8,,,,,,,
6000.33,-0.00047,-112.1,,,,,,,
6000.35,-0.0005,-115.1,,,,,,,
6000.37,-0.00052,-118.2,,,,,,,
6000.39,-0.00055,-121.5,,,,,,,
6000.41,-0.00058,-124.7,,,,,,,
6000.43,-0.0006,-128.1,,,,,,,
6000.46,-0.00063,-131.4,,,,,,,
6000.48,-0.00065,-134.6,,,,,,,
6000.5,-0.00068,-137.8,,,,,,,
6000.52,-0.0007,-140.8,,,,,,,
6000.54,-0.00073,-143.9,,,,,,,
6000.57,-0.00076,-147.3,,,,,,,
6000.59,-0.00078,-150.7,,,,,,,
6000.62,-0.00081,-153.6,,,,,,,
6000.64,-0.00083,-156.7,,,,,,,
6000.67,-0.00086,-160.1,,,,,,,
6000.69,-0.00088,-163.1,,,,,,,
6000.71,-0.00091,-166.3,,,,,,,
6000.74,-0.00093,-169.5,,,,,,,
6000.76,-0.00096,-172.4,,,,,,,
6000.79,-0.00098,-175.6,,,,,,,
6000.81,-0.00101,-178.6,,,,,,,
6000.84,-0.00104,-181.7,,,,,,,
6000.86,-0.00106,-182.8,,,,,,,
6000.87,-0.00109,-183.9,,,,,,,
6000.88,-0.00112,-184.5,,,,,,,
6000.88,-0.00115,-184.9,,,,,,,
6000.89,-0.00117,-185.3,,,,,,,
6000.89,-0.0012,-185.7,,,,,,,
6000.9,-0.00122,-185.7,,,,,,,
6000.91,-0.00125,-185.0,,,,,,,
6000.95,-0.00122,-170.2,,,,,,,
6000.96,-0.0012,-166.8,,,,,,,
6000.98,-0.00117,-164.7,,,,,,,
6000.99,-0.00115,-164.0,,,,,,,
6001.05,-0.00117,-178.8,,,,,,,
6001.06,-0.0012,-183.4,,,,,,,
6001.07,-0.00123,-187.2,,,,,,,
6001.08,-0.00125,-190.7,,,,,,,
6001.09,-0.00128,-193.7,,,,,,,
6001.1,-0.00131,-196.1,,,,,,,
6001.11,-0.00133,-196.8,,,,,,,
6001.12,-0.00136,-198.0,,,,,,,
6001.12,-0.00139,-198.5,,,,,,,
6001.13,-0.00141,-198.8,,,,,,,
6001.13,-0.00144,-198.8,,,,,,,
6001.14,-0.00147,-198.4,,,,,,,
6001.2,-0.00144,-184.1,,,,,,,
6001.21,-0.00142,-181.8,,,,,,,
6001.23,-0.00139,-181.2,,,,,,,
6001.29,-0.00142,-190.3,,,,,,,
6001.31,-0.00144,-191.5,,,,,,,
6001.38,-0.00142,-176.9,,,,,,,
6001.39,-0.00139,-172.1,,,,,,,
6001.4,-0.00136,-167.8,,,,,,,
6001.42,-0.00134,-164.0,,,,,,,
6001.43,-0.00131,-160.5,,,,,,,
6001.44,-0.00128,-157.5,,,,,,,
6001.46,-0.00126,-154.9,,,,,,,
6001.49,-0.00123,-152.8,,,,,,,
6001.56,-0.00121,-146.7,,,,,,,
6001.59,-0.00118,-140.0,,,,,,,
6001.62,-0.00116,-135.1,,,,,,,
6001.64,-0.00113,-131.0,,,,,,,
6001.65,-0.00111,-127.5,,,,,,,
6001.67,-0.00108,-123.9,,,,,,,
6001.7,-0.00106,-120.4,,,,,,,
6001.73,-0.00103,-116.3,,,,,,,
6001.76,-0.001,-111.6,,,,,,,
6001.79,-0.00098,-106.6,,,,,,,
6001.82,-0.00095,-101.7,,,,,,,
6001.85,-0.00093,-97.44,,,,,,,
6001.87,-0.0009,-93.33,,,,,,,
6001.89,-0.00088,-89.45,,,,,,,
6001.92,-0.00085,-85.8,,,,,,,
6001.94,-0.00083,-81.68,,,,,,,
6001.97,-0.0008,-77.65,,,,,,,
6002.0,-0.00077,-73.11,,,,,,,
6002.03,-0.00075,-68.49,,,,,,,
6002.06,-0.00072,-63.86,,,,,,,
6002.08,-0.0007,-59.06,,,,,,,
6002.11,-0.00067,-54.94,,,,,,,
6002.13,-0.00065,-50.77,,,,,,,
6002.15,-0.00062,-47.05,,,,,,,
6002.18,-0.0006,-43.28,,,,,,,
6002.2,-0.00057,-39.77,,,,,,,
6002.23,-0.00055,-36.33,,,,,,,
6002.26,-0.00052,-32.44,,,,,,,
6002.29,-0.00049,-28.25,,,,,,,
6002.32,-0.00047,-23.85,,,,,,,
6002.35,-0.00044,-19.66,,,,,,,
6002.37,-0.00042,-15.9,,,,,,,
6002.4,-0.00039,-11.92,,,,,,,
6002.42,-0.00037,-8.17,,,,,,,
6002.45,-0.00034,-4.3,,,,,,,
6002.48,-0.00032,-0.69,,,,,,,
6002.5,-0.00029,2.96,,,,,,,
6002.53,-0.00027,6.98,,,,,,,
6002.55,-0.00024,11.09,,,,,,,
6002.58,-0.00021,15.15,,,,,,,
6002.61,-0.00019,18.95,,,,,,,
6002.63,-0.00016,22.51,,,,,,,
6002.66,-0.00014,26.24,,,,,,,
6002.69,-0.00011,30.01,,,,,,,
6002.72,-9e-05,33.04,,,,,,,
12005.56,-0.00011,38.26,,,,,,,
12005.58,-9e-05,46.3,,,,,,,
12005.59,-6e-05,51.13,,,,,,,
12005.6,-3e-05,55.22,,,,,,,
12005.61,-1e-05,58.72,,,,,,,
12005.62,2e-05,61.81,,,,,,,
12005.63,4e-05,64.36,,,,,,,
12005.64,7e-05,66.61,,,,,,,
12005.65,0.0001,68.46,,,,,,,
12005.67,0.00012,69.51,,,,,,,
12005.77,0.00015,72.28,,,,,,,
12005.8,0.00017,77.73,,,,,,,
12005.83,0.0002,82.08,,,,,,,
12005.85,0.00023,85.78,,,,,,,
12005.86,0.00025,89.1,,,,,,,
12005.88,0.00028,92.22,,,,,,,
12005.91,0.0003,94.75,,,,,,,
12005.94,0.00033,97.46,,,,,,,
12005.97,0.00035,100.52,,,,,,,
12006.01,0.00038,104.28,,,,,,,
12006.03,0.0004,107.91,,,,,,,
12006.06,0.00043,111.42,,,,,,,
12006.09,0.00045,114.93,,,,,,,
12006.11,0.00048,118.12,,,,,,,
12006.14,0.0005,121.24,,,,,,,
12006.16,0.00053,124.43,,,,,,,
12006.19,0.00056,127.89,,,,,,,
12006.22,0.00058,131.65,,,,,,,
12006.25,0.00061,135.21,,,,,,,
12006.27,0.00063,138.05,,,,,,,
12006.3,0.00066,140.87,,,,,,,
12006.33,0.00068,144.13,,,,,,,
12006.36,0.00071,147.57,,,,,,,
12006.38,0.00073,151.0,,,,,,,
12006.41,0.00076,154.45,,,,,,,
12006.43,0.00079,157.77,,,,,,,
12006.45,0.00081,161.16,,,,,,,
12006.47,0.00084,164.51,,,,,,,
12006.49,0.00086,167.72,,,,,,,
12006.52,0.00089,170.97,,,,,,,
12006.54,0.00091,174.2,,,,,,,
12006.56,0.00094,177.47,,,,,,,
12006.58,0.00096,180.31,,,,,,,
12006.6,0.00099,183.07,,,,,,,
12006.63,0.00101,185.94,,,,,,,
12006.65,0.00104,188.13,,,,,,,
12006.67,0.00107,188.64,,,,,,,
12006.67,0.00109,189.38,,,,,,,
12006.68,0.00112,189.84,,,,,,,
12006.68,0.00115,190.23,,,,,,,
12006.69,0.00118,190.55,,,,,,,
12006.69,0.0012,190.67,,,,,,,
12006.7,0.00123,190.34,,,,,,,
12006.76,0.0012,175.25,,,,,,,
12006.78,0.00117,173.11,,,,,,,
12006.8,0.00115,173.31,,,,,,,
12006.84,0.00117,183.63,,,,,,,
12006.85,0.0012,188.23,,,,,,,
12006.86,0.00122,191.88,,,,,,,
12006.87,0.00125,195.3,,,,,,,
12006.89,0.00128,198.43,,,,,,,
12006.9,0.00131,200.14,,,,,,,
12006.91,0.00133,201.1,,,,,,,
12006.92,0.00136,202.17,,,,,,,
12006.93,0.00139,202.86,,,,,,,
12006.94,0.00141,203.16,,,,,,,
12006.95,0.00144,202.86,,,,,,,
12006.97,0.00146,200.5,,,,,,,
12007.02,0.00144,194.4,,,,,,,
12007.16,0.00141,183.47,,,,,,,
12007.18,0.00139,178.97,,,,,,,
12007.19,0.00136,174.88,,,,,,,
12007.21,0.00134,171.13,,,,,,,
12007.23,0.00131,167.84,,,,,,,
12007.25,0.00128,164.58,,,,,,,
12007.27,0.00126,161.38,,,,,,,
12007.3,0.00123,157.87,,,,,,,
12007.34,0.00121,153.22,,,,,,,
12007.37,0.00118,148.29,,,,,,,
12007.4,0.00116,144.09,,,,,,,
12007.42,0.00113,140.07,,,,,,,
12007.45,0.00111,136.28,,,,,,,
12007.47,0.00108,132.55,,,,,,,
12007.49,0.00106,129.0,,,,,,,
12007.52,0.00103,125.39,,,,,,,
12007.55,0.001,121.79,,,,,,,
12007.58,0.00098,117.95,,,,,,,
12007.6,0.00095,113.88,,,,,,,
12007.63,0.00093,109.65,,,,,,,
12007.66,0.0009,105.4,,,,,,,
12007.69,0.00088,101.1,,,,,,,
12007.71,0.00085,97.24,,,,,,,
12007.74,0.00083,93.37,,,,,,,
12007.77,0.0008,89.18,,,,,,,
12007.79,0.00077,85.1,,,,,,,
12007.82,0.00075,80.69,,,,,,,
12007.85,0.00072,76.18,,,,,,,
12007.88,0.0007,71.92,,,,,,,
12007.9,0.00067,67.83,,,,,,,
12007.93,0.00065,63.85,,,,,,,
12007.95,0.00062,60.11,,,,,,,
12007.98,0.0006,55.85,,,,,,,
12008.01,0.00057,51.91,,,,,,,
12008.03,0.00055,48.03,,,,,,,
12008.06,0.00052,44.28,,,,,,,
12008.08,0.0005,40.62,,,,,,,
12008.11,0.00047,36.77,,,,,,,
12008.14,0.00045,32.54,,,,,,,
12008.17,0.00042,28.4,,,,,,,
12008.19,0.00039,24.43,,,,,,,
12008.22,0.00037,20.89,,,,,,,
12008.24,0.00034,17.32,,,,,,,
12008.27,0.00032,13.58,,,,,,,
12008.3,0.00029,9.79,,,,,,,
12008.32,0.00027,5.77,,,,,,,
12008.35,0.00024,2.22,,,,,,,
12008.38,0.00022,-1.58,,,,,,,
12008.4,0.00019,-5.11,,,,,,,
12008.43,0.00016,-8.56,,,,,,,
12008.45,0.00014,-11.73,,,,,,,
12008.48,0.00011,-15.0,,,,,,,
12008.58,9e-05,-18.27,,,,,,,
12008.61,6e-05,-25.21,,,,,,,
12008.62,4e-05,-30.89,,,,,,,
12008.63,1e-05,-35.74,,,,,,,
12008.64,-2e-05,-39.36,,,,,,,
12008.65,-4e-05,-42.59,,,,,,,
12008.66,-7e-05,-45.4,,,,,,,
12008.67,-9e-05,-47.63,,,,,,,
12008.69,-0.00012,-49.41,,,,,,,
12008.71,-0.00015,-50.42,,,,,,,
12008.81,-0.00017,-55.13,,,,,,,
12008.83,-0.0002,-59.92,,,,,,,
12008.85,-0.00022,-63.87,,,,,,,
12008.87,-0.00025,-67.27,,,,,,,
12008.89,-0.00027,-70.29,,,,,,,
12008.91,-0.0003,-73.1,,,,,,,
12008.94,-0.00032,-75.58,,,,,,,
12008.98,-0.00035,-78.72,,,,,,,
12009.02,-0.00037,-82.99,,,,,,,
12009.05,-0.0004,-87.2,,,,,,,
12009.07,-0.00042,-91.21,,,,,,,
12009.09,-0.00045,-94.74,,,,,,,
12009.12,-0.00048,-97.91,,,,,,,
12009.14,-0.0005,-100.9,,,,,,,
12009.17,-0.00053,-104.3,,,,,,,
12009.2,-0.00055,-107.7,,,,,,,
12009.23,-0.00058,-110.9,,,,,,,
12009.26,-0.0006,-114.3,,,,,,,
12009.28,-0.00063,-118.0,,,,,,,
12009.31,-0.00065,-121.4,,,,,,,
12009.33,-0.00068,-125.1,,,,,,,
12009.35,-0.0007,-128.9,,,,,,,
12009.38,-0.00073,-132.5,,,,,,,
12009.39,-0.00076,-135.9,,,,,,,
12009.41,-0.00078,-139.3,,,,,,,
12009.43,-0.00081,-142.5,,,,,,,
12009.45,-0.00083,-145.7,,,,,,,
12009.47,-0.00086,-148.9,,,,,,,
12009.49,-0.00088,-151.8,,,,,,,
12009.52,-0.00091,-155.0,,,,,,,
12009.54,-0.00093,-158.0,,,,,,,
12009.57,-0.00096,-161.3,,,,,,,
12009.59,-0.00098,-164.5,,,,,,,
12009.62,-0.00101,-167.8,,,,,,,
12009.64,-0.00104,-170.8,,,,,,,
12009.66,-0.00106,-173.8,,,,,,,
12009.69,-0.00109,-176.8,,,,,,,
12009.71,-0.00111,-179.6,,,,,,,
12009.74,-0.00114,-182.2,,,,,,,
12009.76,-0.00116,-184.3,,,,,,,
12009.78,-0.00119,-185.4,,,,,,,
12009.79,-0.00122,-186.6,,,,,,,
12009.81,-0.00124,-187.4,,,,,,,
12009.82,-0.00127,-188.0,,,,,,,
12009.84,-0.00129,-187.9,,,,,,,
12009.87,-0.0013,-187.0,,,,,,,
12009.94,-0.00132,-190.9,,,,,,,
12009.97,-0.00135,-195.1,,,,,,,
12009.99,-0.00137,-197.8,,,,,,,
12010.0,-0.0014,-198.7,,,,,,,
12010.0,-0.00143,-199.5,,,,,,,
12010.01,-0.00145,-200.1,,,,,,,
12010.01,-0.00148,-200.5,,,,,,,
12010.01,-0.00151,-200.6,,,,,,,
12010.02,-0.00153,-200.5,,,,,,,
12010.02,-0.00156,-200.3,,,,,,,
12010.03,-0.00159,-199.6,,,,,,,
12010.04,-0.00161,-197.9,,,,,,,
12010.08,-0.00159,-178.8,,,,,,,
12010.09,-0.00156,-173.7,,,,,,,
12010.1,-0.00153,-168.7,,,,,,,
12010.1,-0.0015,-164.4,,,,,,,
12010.11,-0.00148,-160.5,,,,,,,
12010.12,-0.00145,-156.8,,,,,,,
12010.12,-0.00142,-153.7,,,,,,,
12010.13,-0.00139,-151.0,,,,,,,
12010.14,-0.00137,-148.5,,,,,,,
12010.15,-0.00134,-146.4,,,,,,,
12010.16,-0.00131,-145.0,,,,,,,
12010.17,-0.00129,-144.8,,,,,,,
12010.25,-0.00131,-148.7,,,,,,,
12010.3,-0.00129,-138.8,,,,,,,
12010.32,-0.00126,-134.2,,,,,,,
12010.33,-0.00124,-130.2,,,,,,,
12010.35,-0.00121,-126.5,,,,,,,
12010.36,-0.00118,-123.5,,,,,,,
12010.38,-0.00116,-120.5,,,,,,,
12010.4,-0.00113,-117.8,,,,,,,
12010.43,-0.00111,-114.8,,,,,,,
12010.47,-0.00108,-110.9,,,,,,,
12010.51,-0.00106,-106.0,,,,,,,
12010.54,-0.00103,-101.3,,,,,,,
12010.56,-0.00101,-97.1,,,,,,,
12010.58,-0.00098,-93.13,,,,,,,
12010.61,-0.00096,-89.1,,,,,,,
12010.63,-0.00093,-85.38,,,,,,,
12010.66,-0.0009,-81.4,,,,,,,
12010.69,-0.00088,-77.53,,,,,,,
12010.71,-0.00085,-73.58,,,,,,,
12010.74,-0.00083,-69.22,,,,,,,
12010.77,-0.0008,-64.59,,,,,,,
12010.8,-0.00078,-60.51,,,,,,,
12010.82,-0.00075,-56.45,,,,,,,
12010.85,-0.00073,-52.7,,,,,,,
12010.87,-0.0007,-49.19,,,,,,,
12010.89,-0.00068,-45.53,,,,,,,
12010.92,-0.00065,-41.96,,,,,,,
12010.94,-0.00063,-38.76,,,,,,,
12010.97,-0.0006,-35.17,,,,,,,
12011.0,-0.00058,-31.25,,,,,,,
12011.03,-0.00055,-27.32,,,,,,,
12011.06,-0.00052,-23.28,,,,,,,
12011.08,-0.0005,-19.3,,,,,,,
12011.1,-0.00047,-15.66,,,,,,,
12011.13,-0.00045,-12.1,,,,,,,
12011.15,-0.00042,-8.82,,,,,,,
12011.18,-0.0004,-5.41,,,,,,,
12011.21,-0.00037,-1.54,,,,,,,
12011.24,-0.00035,2.1,,,,,,,
12011.27,-0.00032,5.75,,,,,,,
12011.29,-0.00029,9.38,,,,,,,
12011.32,-0.00027,12.77,,,,,,,
12011.34,-0.00024,16.34,,,,,,,
12011.37,-0.00022,19.74,,,,,,,
12011.4,-0.00019,23.39,,,,,,,
12011.43,-0.00017,27.24,,,,,,,
12011.46,-0.00014,30.97,,,,,,,
12011.5,-0.00012,32.44,,,,,,,
26728.59,0.00143,203.67,,,,,,,
26728.6,0.00146,205.07,,,,,,,
26728.61,0.00149,205.76,,,,,,,
26728.61,0.00152,206.11,,,,,,,
26728.62,0.00155,205.65,,,,,,,
26728.63,0.00157,204.95,,,,,,,
26728.64,0.0016,203.59,,,,,,,
26728.64,0.00162,200.97,,,,,,,
26728.68,0.0016,178.08,,,,,,,
26728.69,0.00157,172.36,,,,,,,
26728.69,0.00154,167.56,,,,,,,
26728.7,0.00151,162.74,,,,,,,
26728.7,0.00149,159.04,,,,,,,
26728.71,0.00146,155.49,,,,,,,
26728.71,0.00144,152.17,,,,,,,
26728.72,0.00141,149.18,,,,,,,
26728.72,0.00138,146.52,,,,,,,
26728.73,0.00136,143.73,,,,,,,
26728.73,0.00133,141.4,,,,,,,
26728.74,0.0013,139.43,,,,,,,
26728.75,0.00127,138.01,,,,,,,
26728.76,0.00125,137.35,,,,,,,
26728.78,0.00122,138.96,,,,,,,
26728.81,0.00125,145.9,,,,,,,
26728.83,0.00127,147.84,,,,,,,
26728.91,0.00125,133.36,,,,,,,
26728.92,0.00122,129.0,,,,,,,
26728.94,0.0012,125.27,,,,,,,
26728.95,0.00117,121.94,,,,,,,
26728.96,0.00114,119.05,,,,,,,
26728.98,0.00112,116.48,,,,,,,
26729.0,0.00109,114.08,,,,,,,
26729.04,0.00107,111.13,,,,,,,
26729.08,0.00104,106.39,,,,,,,
26729.11,0.00102,101.62,,,,,,,
26729.14,0.00099,97.33,,,,,,,
26729.16,0.00097,93.46,,,,,,,
26729.18,0.00094,89.71,,,,,,,
26729.21,0.00091,86.19,,,,,,,
26729.23,0.00089,82.58,,,,,,,
26729.26,0.00086,78.7,,,,,,,
26729.29,0.00084,74.5,,,,,,,
26729.32,0.00081,70.17,,,,,,,
26729.35,0.00079,66.0,,,,,,,
26729.37,0.00076,62.09,,,,,,,
26729.4,0.00074,58.17,,,,,,,
26729.43,0.00071,54.24,,,,,,,
26729.45,0.00068,50.35,,,,,,,
26729.48,0.00066,46.47,,,,,,,
26729.51,0.00063,42.75,,,,,,,
26729.53,0.00061,38.88,,,,,,,
26729.56,0.00058,34.85,,,,,,,
26729.59,0.00056,31.16,,,,,,,
26729.62,0.00053,27.3,,,,,,,
26729.64,0.00051,23.38,,,,,,,
26729.67,0.00048,19.58,,,,,,,
26729.69,0.00046,15.73,,,,,,,
26729.72,0.00043,12.35,,,,,,,
26729.74,0.0004,8.99,,,,,,,
26729.77,0.00038,5.59,,,,,,,
26729.79,0.00035,2.19,,,,,,,
26729.82,0.00033,-1.06,,,,,,,
26729.85,0.0003,-4.39,,,,,,,
26729.87,0.00028,-7.56,,,,,,,
26729.88,0.00028,-8.07,,,,,,,
26729.91,0.00025,-12.09,,,,,,,
26729.94,0.00023,-15.57,,,,,,,
26730.03,0.0002,-18.36,,,,,,,
26730.06,0.00017,-25.75,,,,,,,
26730.07,0.00015,-31.13,,,,,,,
26730.08,0.00012,-35.78,,,,,,,
26730.09,0.0001,-39.27,,,,,,,
26730.1,7e-05,-42.33,,,,,,,
26730.11,4e-05,-44.96,,,,,,,
26730.12,2e-05,-47.26,,,,,,,
26730.14,-1e-05,-48.85,,,,,,,
26730.16,-3e-05,-49.68,,,,,,,
26730.25,-6e-05,-54.56,,,,,,,
26730.28,-8e-05,-58.89,,,,,,,
26730.3,-0.00011,-62.64,,,,,,,
26730.32,-0.00014,-66.07,,,,,,,
26730.34,-0.00016,-69.07,,,,,,,
26730.37,-0.00019,-71.86,,,,,,,
26730.39,-0.00021,-74.83,,,,,,,
26730.43,-0.00024,-78.13,,,,,,,
26730.46,-0.00026,-81.78,,,,,,,
26730.49,-0.00029,-85.6,,,,,,,
26730.52,-0.00031,-89.17,,,,,,,
26730.54,-0.00034,-92.48,,,,,,,
26730.56,-0.00036,-95.53,,,,,,,
26730.59,-0.00039,-98.75,,,,,,,
26730.62,-0.00041,-102.0,,,,,,,
26730.65,-0.00044,-105.6,,,,,,,
26730.68,-0.00047,-109.2,,,,,,,
26730.71,-0.00049,-112.9,,,,,,,
26730.73,-0.00052,-116.5,,,,,,,
26730.76,-0.00054,-119.9,,,,,,,
26730.78,-0.00057,-123.4,,,,,,,
26730.8,-0.00059,-127.0,,,,,,,
26730.82,-0.00062,-130.4,,,,,,,
26730.84,-0.00065,-133.7,,,,,,,
26730.86,-0.00067,-136.9,,,,,,,
26730.89,-0.0007,-140.3,,,,,,,
26730.9,-0.00072,-143.3,,,,,,,
26730.93,-0.00075,-146.4,,,,,,,
26730.95,-0.00077,-149.5,,,,,,,
26730.97,-0.0008,-152.7,,,,,,,
26731.0,-0.00082,-155.8,,,,,,,
26731.02,-0.00085,-159.2,,,,,,,
26731.05,-0.00088,-162.3,,,,,,,
26731.07,-0.0009,-165.3,,,,,,,
26731.09,-0.00093,-168.2,,,,,,,
26731.12,-0.00095,-171.2,,,,,,,
26731.14,-0.00098,-174.1,,,,,,,
26731.17,-0.001,-177.0,,,,,,,
26731.19,-0.00103,-179.0,,,,,,,
26731.23,-0.00105,-182.2,,,,,,,
26731.25,-0.00108,-185.4,,,,,,,
26731.27,-0.00111,-186.2,,,,,,,
26731.28,-0.00113,-186.9,,,,,,,
26731.28,-0.00116,-187.5,,,,,,,
26731.28,-0.00119,-188.0,,,,,,,
26731.29,-0.00122,-188.5,,,,,,,
26731.3,-0.00125,-188.7,,,,,,,
26731.3,-0.00128,-188.5,,,,,,,
26731.31,-0.0013,-186.9,,,,,,,
26731.35,-0.00128,-174.0,,,,,,,
26731.37,-0.00125,-170.4,,,,,,,
26731.38,-0.00122,-167.8,,,,,,,
26731.39,-0.0012,-166.6,,,,,,,
26731.45,-0.00122,-180.7,,,,,,,
26731.46,-0.00125,-184.9,,,,,,,
26731.47,-0.00128,-188.5,,,,,,,
26731.48,-0.0013,-191.7,,,,,,,
26731.49,-0.00133,-194.4,,,,,,,
26731.5,-0.00135,-196.8,,,,,,,
26731.51,-0.00138,-198.1,,,,,,,
26731.53,-0.00141,-198.3,,,,,,,
26731.53,-0.00143,-198.7,,,,,,,
26731.54,-0.00146,-198.7,,,,,,,
26731.56,-0.00148,-197.9,,,,,,,
26731.62,-0.00146,-190.0,,,,,,,
26731.67,-0.00143,-185.1,,,,,,,
26731.71,-0.00141,-179.4,,,,,,,
26731.74,-0.00138,-174.4,,,,,,,
26731.76,-0.00136,-170.1,,,,,,,
26731.78,-0.00133,-165.9,,,,,,,
26731.8,-0.00131,-162.1,,,,,,,
26731.82,-0.00128,-158.3,,,,,,,
26731.85,-0.00125,-154.8,,,,,,,
26731.88,-0.00123,-150.8,,,,,,,
26731.91,-0.0012,-146.5,,,,,,,
26731.94,-0.00118,-142.2,,,,,,,
26731.97,-0.00115,-137.9,,,,,,,
26731.99,-0.00113,-133.9,,,,,,,
26732.02,-0.0011,-130.2,,,,,,,
26732.05,-0.00108,-126.2,,,,,,,
26732.07,-0.00105,-122.3,,,,,,,
26732.1,-0.00103,-118.5,,,,,,,
26732.12,-0.001,-114.8,,,,,,,
26732.15,-0.00097,-111.0,,,,,,,
26732.18,-0.00095,-107.2,,,,,,,
26732.2,-0.00092,-103.4,,,,,,,
26732.23,-0.0009,-99.7,,,,,,,
26732.26,-0.00087,-96.0,,,,,,,
26732.28,-0.00085,-92.28,,,,,,,
26732.31,-0.00082,-88.53,,,,,,,
26732.34,-0.0008,-84.81,,,,,,,
26732.36,-0.00077,-81.13,,,,,,,
26732.39,-0.00074,-77.55,,,,,,,
26732.41,-0.00072,-74.01,,,,,,,
26732.44,-0.00069,-70.45,,,,,,,
26732.47,-0.00067,-66.85,,,,,,,
26732.49,-0.00064,-63.22,,,,,,,
26732.52,-0.00062,-59.77,,,,,,,
26732.55,-0.00059,-55.83,,,,,,,
26732.57,-0.00057,-52.28,,,,,,,
26732.59,-0.00054,-48.82,,,,,,,
26732.62,-0.00051,-45.35,,,,,,,
26732.65,-0.00049,-41.74,,,,,,,
26732.67,-0.00046,-38.3,,,,,,,
26732.7,-0.00044,-34.93,,,,,,,
26732.73,-0.00041,-31.22,,,,,,,
26732.76,-0.00039,-27.5,,,,,,,
26732.78,-0.00036,-23.66,,,,,,,
26732.81,-0.00033,-19.98,,,,,,,
26732.83,-0.00031,-16.56,,,,,,,
26732.86,-0.00028,-13.2,,,,,,,
26732.89,-0.00026,-9.46,,,,,,,
26732.92,-0.00023,-5.79,,,,,,,
26732.95,-0.00021,-1.86,,,,,,,
26732.97,-0.00018,1.6,,,,,,,
26733.0,-0.00016,5.08,,,,,,,
26733.02,-0.00013,8.5,,,,,,,
26733.05,-0.00011,11.81,,,,,,,
26733.07,-8e-05,15.12,,,,,,,
26733.1,-6e-05,18.61,,,,,,,
26733.13,-3e-05,22.03,,,,,,,
26733.16,-0.0,25.55,,,,,,,
26733.19,2e-05,29.27,,,,,,,
26733.22,5e-05,32.19,,,,,,,
26733.32,7e-05,38.67,,,,,,,
26733.34,0.0001,46.05,,,,,,,
26733.35,0.00012,51.21,,,,,,,
26733.36,0.00015,55.23,,,,,,,
26733.37,0.00018,58.6,,,,,,,
26733.38,0.0002,61.96,,,,,,,
26733.39,0.00023,64.7,,,,,,,
26733.4,0.00026,66.9,,,,,,,
26733.41,0.00028,68.58,,,,,,,
26733.43,0.00031,69.45,,,,,,,
26733.54,0.00033,74.46,,,,,,,
26733.56,0.00036,78.94,,,,,,,
26733.58,0.00038,83.0,,,,,,,
26733.6,0.00041,86.45,,,,,,,
26733.62,0.00043,89.65,,,,,,,
26733.64,0.00046,92.67,,,,,,,
26733.66,0.00048,95.07,,,,,,,
26733.69,0.00051,97.68,,,,,,,
26733.73,0.00054,101.13,,,,,,,
26733.76,0.00056,105.08,,,,,,,
26733.79,0.00059,108.84,,,,,,,
26733.82,0.00061,112.45,,,,,,,
26733.84,0.00064,115.74,,,,,,,
26733.87,0.00066,118.96,,,,,,,
26733.89,0.00069,122.0,,,,,,,
26733.92,0.00071,125.1,,,,,,,
26733.95,0.00074,128.37,,,,,,,
26733.98,0.00076,131.74,,,,,,,
26734.0,0.00079,135.1,,,,,,,
26734.03,0.00082,138.24,,,,,,,
26734.06,0.00084,141.41,,,,,,,
26734.08,0.00087,144.46,,,,,,,
26734.1,0.00089,147.42,,,,,,,
26734.13,0.00092,150.43,,,,,,,
26734.16,0.00094,153.61,,,,,,,
26734.18,0.00097,157.31,,,,,,,
26734.21,0.00099,160.94,,,,,,,
26734.23,0.00102,164.45,,,,,,,
26734.25,0.00105,167.74,,,,,,,
26734.27,0.00107,170.86,,,,,,,
26734.29,0.0011,173.78,,,,,,,
26734.31,0.00112,176.78,,,,,,,
26734.33,0.00115,179.56,,,,,,,
26734.36,0.00117,182.28,,,,,,,
26734.38,0.0012,185.03,,,,,,,
26734.41,0.00122,187.96,,,,,,,
26734.43,0.00125,190.66,,,,,,,
26734.45,0.00128,192.54,,,,,,,
26734.47,0.0013,194.11,,,,,,,
26734.49,0.00133,195.44,,,,,,,
26734.5,0.00135,196.61,,,,,,,
26734.52,0.00138,197.45,,,,,,,
26734.55,0.0014,197.7,,,,,,,
26734.6,0.00143,198.53,,,,,,,
30031.94,-5e-05,30.32,,,,,,,
30031.97,-3e-05,32.32,,,,,,,
30032.08,0.0,39.93,,,,,,,
30032.09,3e-05,46.61,,,,,,,
30032.1,5e-05,51.23,,,,,,,
30032.11,8e-05,55.14,,,,,,,
30032.12,0.00011,58.31,,,,,,,
30032.13,0.00013,61.4,,,,,,,
30032.14,0.00016,63.91,,,,,,,
30032.15,0.00019,65.9,,,,,,,
30032.16,0.00021,67.37,,,,,,,
30032.19,0.00024,67.8,,,,,,,
30032.29,0.00026,73.62,,,,,,,
30032.31,0.00029,77.95,,,,,,,
30032.33,0.00031,81.52,,,,,,,
30032.35,0.00034,84.67,,,,,,,
30032.37,0.00036,87.54,,,,,,,
30032.4,0.00039,90.3,,,,,,,
30032.43,0.00041,93.19,,,,,,,
30032.46,0.00044,96.6,,,,,,,
30032.49,0.00046,100.43,,,,,,,
30032.52,0.00049,104.07,,,,,,,
30032.55,0.00052,107.65,,,,,,,
30032.57,0.00054,111.03,,,,,,,
30032.6,0.00057,114.16,,,,,,,
30032.62,0.00059,117.28,,,,,,,
30032.65,0.00062,120.43,,,,,,,
30032.68,0.00064,123.7,,,,,,,
30032.71,0.00067,126.97,,,,,,,
30032.74,0.00069,130.19,,,,,,,
30032.76,0.00072,133.51,,,,,,,
30032.79,0.00074,136.7,,,,,,,
30032.81,0.00077,139.93,,,,,,,
30032.84,0.0008,143.15,,,,,,,
30032.87,0.00082,146.5,,,,,,,
30032.9,0.00085,149.8,,,,,,,
30032.92,0.00087,153.05,,,,,,,
30032.94,0.0009,156.9,,,,,,,
30032.96,0.00092,160.37,,,,,,,
30032.98,0.00095,163.28,,,,,,,
30033.0,0.00097,166.18,,,,,,,
30033.02,0.001,169.03,,,,,,,
30033.05,0.00102,171.98,,,,,,,
30033.07,0.00105,175.17,,,,,,,
30033.09,0.00107,178.0,,,,,,,
30033.12,0.0011,180.96,,,,,,,
30033.14,0.00113,184.05,,,,,,,
30033.16,0.00115,187.03,,,,,,,
30033.19,0.00118,188.96,,,,,,,
30033.21,0.0012,190.91,,,,,,,
30033.23,0.00123,191.62,,,,,,,
30033.23,0.00126,192.11,,,,,,,
30033.24,0.00128,192.74,,,,,,,
30033.25,0.00131,193.15,,,,,,,
30033.25,0.00134,193.34,,,,,,,
30033.26,0.00137,193.33,,,,,,,
30033.27,0.00139,192.74,,,,,,,
30033.33,0.00137,178.64,,,,,,,
30033.34,0.00134,176.17,,,,,,,
30033.42,0.00137,189.75,,,,,,,
30033.43,0.00139,193.42,,,,,,,
30033.44,0.00142,196.63,,,,,,,
30033.45,0.00144,199.18,,,,,,,
30033.46,0.00147,200.93,,,,,,,
30033.48,0.0015,201.35,,,,,,,
30033.54,0.00147,182.89,,,,,,,
30033.55,0.00144,178.2,,,,,,,
30033.56,0.00142,174.2,,,,,,,
30033.57,0.00139,170.6,,,,,,,
30033.58,0.00136,167.45,,,,,,,
30033.59,0.00134,164.63,,,,,,,
30033.6,0.00131,162.0,,,,,,,
30033.62,0.00129,159.92,,,,,,,
30033.67,0.00126,157.81,,,,,,,
30033.73,0.00124,149.32,,,,,,,
30033.76,0.00121,144.38,,,,,,,
30033.78,0.00118,140.14,,,,,,,
30033.8,0.00116,136.38,,,,,,,
30033.81,0.00113,132.79,,,,,,,
30033.84,0.00111,129.32,,,,,,,
30033.86,0.00108,126.16,,,,,,,
30033.9,0.00106,122.15,,,,,,,
30033.93,0.00103,117.61,,,,,,,
30033.96,0.00101,113.38,,,,,,,
30033.99,0.00098,109.03,,,,,,,
30034.01,0.00096,104.88,,,,,,,
30034.03,0.00093,101.17,,,,,,,
30034.05,0.0009,97.7,,,,,,,
30034.08,0.00088,94.51,,,,,,,
30034.1,0.00085,91.16,,,,,,,
30034.13,0.00083,87.59,,,,,,,
30034.16,0.0008,83.59,,,,,,,
30034.19,0.00078,79.51,,,,,,,
30034.22,0.00075,75.3,,,,,,,
30034.25,0.00073,71.25,,,,,,,
30034.27,0.0007,67.13,,,,,,,
30034.3,0.00068,63.24,,,,,,,
30034.32,0.00065,59.43,,,,,,,
30034.35,0.00062,55.59,,,,,,,
30034.38,0.0006,51.59,,,,,,,
30034.41,0.00057,47.42,,,,,,,
30034.43,0.00055,43.41,,,,,,,
30034.46,0.00052,39.7,,,,,,,
30034.48,0.0005,35.93,,,,,,,
30034.51,0.00047,32.32,,,,,,,
30034.53,0.00045,28.76,,,,,,,
30034.56,0.00042,25.47,,,,,,,
30034.59,0.0004,21.88,,,,,,,
30034.62,0.00037,18.14,,,,,,,
30034.64,0.00034,14.44,,,,,,,
30034.67,0.00032,10.74,,,,,,,
30034.7,0.00029,7.05,,,,,,,
30034.73,0.00027,3.13,,,,,,,
30034.75,0.00024,-0.74,,,,,,,
30034.78,0.00022,-4.7,,,,,,,
30034.8,0.00019,-8.19,,,,,,,
30034.83,0.00017,-11.58,,,,,,,
30034.85,0.00014,-14.73,,,,,,,
30034.89,0.00011,-15.61,,,,,,,
30034.99,9e-05,-24.75,,,,,,,
30035.0,6e-05,-30.82,,,,,,,
30035.01,4e-05,-35.73,,,,,,,
30035.02,1e-05,-39.53,,,,,,,
30035.03,-2e-05,-42.87,,,,,,,
30035.04,-4e-05,-45.72,,,,,,,
30035.05,-7e-05,-48.16,,,,,,,
30035.06,-9e-05,-49.94,,,,,,,
30035.08,-0.00012,-51.0,,,,,,,
30035.19,-0.00015,-54.27,,,,,,,
30035.21,-0.00017,-59.1,,,,,,,
30035.23,-0.0002,-63.25,,,,,,,
30035.25,-0.00022,-66.83,,,,,,,
30035.27,-0.00025,-69.97,,,,,,,
30035.3,-0.00027,-73.11,,,,,,,
30035.32,-0.0003,-75.96,,,,,,,
30035.35,-0.00033,-78.73,,,,,,,
30035.38,-0.00035,-81.83,,,,,,,
30035.42,-0.00038,-85.73,,,,,,,
30035.44,-0.0004,-89.41,,,,,,,
30035.47,-0.00043,-92.84,,,,,,,
30035.49,-0.00045,-96.17,,,,,,,
30035.52,-0.00048,-99.21,,,,,,,
30035.55,-0.0005,-102.2,,,,,,,
30035.57,-0.00053,-105.2,,,,,,,
30035.6,-0.00055,-108.2,,,,,,,
30035.63,-0.00058,-111.5,,,,,,,
30035.66,-0.0006,-115.3,,,,,,,
30035.69,-0.00063,-119.1,,,,,,,
30035.71,-0.00066,-123.0,,,,,,,
30035.74,-0.00068,-127.0,,,,,,,
30035.76,-0.00071,-131.1,,,,,,,
30035.78,-0.00073,-134.6,,,,,,,
30035.8,-0.00076,-138.0,,,,,,,
30035.81,-0.00078,-141.2,,,,,,,
30035.83,-0.00081,-144.2,,,,,,,
30035.85,-0.00083,-147.2,,,,,,,
30035.88,-0.00086,-150.5,,,,,,,
30035.9,-0.00088,-153.8,,,,,,,
30035.92,-0.00091,-157.0,,,,,,,
30035.95,-0.00094,-160.2,,,,,,,
30035.97,-0.00096,-163.2,,,,,,,
30035.99,-0.00099,-166.2,,,,,,,
30036.02,-0.00101,-169.3,,,,,,,
30036.04,-0.00104,-172.1,,,,,,,
30036.06,-0.00106,-175.0,,,,,,,
30036.09,-0.00109,-177.9,,,,,,,
30036.12,-0.00111,-181.1,,,,,,,
30036.14,-0.00114,-184.3,,,,,,,
30036.17,-0.00117,-187.3,,,,,,,
30036.19,-0.00119,-190.0,,,,,,,
30036.22,-0.00122,-192.4,,,,,,,
30036.24,-0.00124,-194.2,,,,,,,
30036.26,-0.00127,-195.3,,,,,,,
30036.27,-0.00129,-196.1,,,,,,,
30036.28,-0.00132,-196.7,,,,,,,
30036.29,-0.00135,-197.1,,,,,,,
30036.3,-0.00138,-197.3,,,,,,,
30036.31,-0.0014,-197.2,,,,,,,
30036.32,-0.00143,-196.2,,,,,,,
30036.37,-0.0014,-184.7,,,,,,,
30036.39,-0.00138,-182.8,,,,,,,
30036.46,-0.0014,-194.7,,,,,,,
30036.47,-0.00143,-197.6,,,,,,,
30036.48,-0.00145,-199.4,,,,,,,
30036.5,-0.00148,-199.3,,,,,,,
30036.56,-0.00145,-183.8,,,,,,,
30036.57,-0.00143,-178.9,,,,,,,
30036.58,-0.0014,-174.5,,,,,,,
30036.59,-0.00138,-170.5,,,,,,,
30036.6,-0.00135,-167.0,,,,,,,
30036.61,-0.00132,-163.9,,,,,,,
30036.62,-0.0013,-161.0,,,,,,,
30036.64,-0.00127,-158.6,,,,,,,
30036.67,-0.00124,-156.4,,,,,,,
30036.75,-0.00122,-149.3,,,,,,,
30036.78,-0.00119,-143.8,,,,,,,
30036.8,-0.00117,-139.2,,,,,,,
30036.82,-0.00114,-135.1,,,,,,,
30036.84,-0.00112,-131.2,,,,,,,
30036.86,-0.00109,-127.6,,,,,,,
30036.89,-0.00107,-123.9,,,,,,,
30036.91,-0.00104,-120.0,,,,,,,
30036.94,-0.00101,-115.9,,,,,,,
30036.98,-0.00099,-111.5,,,,,,,
30037.01,-0.00096,-106.7,,,,,,,
30037.03,-0.00094,-102.2,,,,,,,
30037.06,-0.00091,-98.13,,,,,,,
30037.08,-0.00089,-94.37,,,,,,,
30037.1,-0.00086,-90.53,,,,,,,
30037.13,-0.00084,-86.69,,,,,,,
30037.15,-0.00081,-82.92,,,,,,,
30037.18,-0.00078,-79.07,,,,,,,
30037.21,-0.00076,-75.34,,,,,,,
30037.24,-0.00073,-71.44,,,,,,,
30037.27,-0.00071,-67.48,,,,,,,
30037.3,-0.00068,-63.49,,,,,,,
30037.32,-0.00066,-59.56,,,,,,,
30037.34,-0.00063,-56.03,,,,,,,
30037.37,-0.00061,-52.41,,,,,,,
30037.39,-0.00058,-48.64,,,,,,,
30037.42,-0.00056,-44.9,,,,,,,
30037.45,-0.00053,-41.01,,,,,,,
30037.48,-0.00051,-37.12,,,,,,,
30037.5,-0.00048,-33.23,,,,,,,
30037.53,-0.00046,-29.66,,,,,,,
30037.55,-0.00043,-25.93,,,,,,,
30037.58,-0.0004,-22.04,,,,,,,
30037.61,-0.00038,-18.12,,,,,,,
30037.64,-0.00035,-13.94,,,,,,,
30037.67,-0.00033,-9.62,,,,,,,
30037.69,-0.0003,-5.78,,,,,,,
30037.72,-0.00028,-1.93,,,,,,,
30037.74,-0.00025,1.51,,,,,,,
30037.76,-0.00022,4.78,,,,,,,
30037.79,-0.0002,8.33,,,,,,,
30037.82,-0.00017,11.85,,,,,,,
30037.85,-0.00015,15.62,,,,,,,
30037.88,-0.00012,19.57,,,,,,,
30037.9,-0.0001,23.54,,,,,,,
30037.93,-7e-05,27.26,,,,,,,
48059.87,0.00141,199.56,,,,,,,
48059.88,0.00142,199.87,,,,,,,
48059.89,0.00144,202.2,,,,,,,
48059.92,0.00147,202.42,,,,,,,
48059.97,0.00144,188.63,,,,,,,
48059.99,0.00142,183.83,,,,,,,
48060.0,0.00139,180.0,,,,,,,
48060.01,0.00136,176.43,,,,,,,
48060.02,0.00134,173.3,,,,,,,
48060.03,0.00131,170.63,,,,,,,
48060.05,0.00129,167.95,,,,,,,
48060.08,0.00126,165.5,,,,,,,
48060.13,0.00124,161.03,,,,,,,
48060.17,0.00121,155.57,,,,,,,
48060.2,0.00119,150.63,,,,,,,
48060.22,0.00116,146.24,,,,,,,
48060.24,0.00114,142.07,,,,,,,
48060.26,0.00111,138.35,,,,,,,
48060.28,0.00108,134.76,,,,,,,
48060.31,0.00106,130.9,,,,,,,
48060.34,0.00103,126.69,,,,,,,
48060.37,0.00101,122.77,,,,,,,
48060.4,0.00098,119.0,,,,,,,
48060.42,0.00096,115.18,,,,,,,
48060.45,0.00093,111.37,,,,,,,
48060.48,0.00091,107.16,,,,,,,
48060.51,0.00088,102.63,,,,,,,
48060.53,0.00085,98.65,,,,,,,
48060.56,0.00083,95.17,,,,,,,
48060.58,0.0008,91.65,,,,,,,
48060.61,0.00078,87.99,,,,,,,
48060.64,0.00075,84.32,,,,,,,
48060.66,0.00073,80.72,,,,,,,
48060.69,0.0007,76.86,,,,,,,
48060.72,0.00068,72.97,,,,,,,
48060.74,0.00065,69.12,,,,,,,
48060.77,0.00063,65.54,,,,,,,
48060.79,0.0006,61.91,,,,,,,
48060.81,0.00057,58.54,,,,,,,
48060.84,0.00055,55.19,,,,,,,
48060.87,0.00052,51.83,,,,,,,
48060.89,0.0005,48.6,,,,,,,
48060.92,0.00047,44.91,,,,,,,
48060.96,0.00045,40.16,,,,,,,
48060.99,0.00042,35.28,,,,,,,
48061.02,0.0004,30.91,,,,,,,
48061.03,0.00037,27.25,,,,,,,
48061.06,0.00034,24.02,,,,,,,
48061.08,0.00032,21.19,,,,,,,
48061.1,0.00029,18.18,,,,,,,
48061.14,0.00027,14.51,,,,,,,
48061.17,0.00024,10.35,,,,,,,
48061.2,0.00022,6.28,,,,,,,
48061.22,0.00019,2.76,,,,,,,
48061.24,0.00017,-0.61,,,,,,,
48061.27,0.00014,-4.24,,,,,,,
48061.3,0.00012,-7.56,,,,,,,
48061.33,9e-05,-11.32,,,,,,,
48061.35,7e-05,-14.99,,,,,,,
48061.39,4e-05,-16.01,,,,,,,
48061.48,1e-05,-25.25,,,,,,,
48061.49,-1e-05,-31.17,,,,,,,
48061.51,-4e-05,-36.37,,,,,,,
48061.52,-6e-05,-40.39,,,,,,,
48061.53,-9e-05,-43.63,,,,,,,
48061.54,-0.00012,-46.73,,,,,,,
48061.55,-0.00014,-49.22,,,,,,,
48061.56,-0.00017,-51.17,,,,,,,
48061.59,-0.0002,-52.46,,,,,,,
48061.68,-0.00022,-57.0,,,,,,,
48061.71,-0.00025,-61.71,,,,,,,
48061.73,-0.00027,-65.7,,,,,,,
48061.74,-0.0003,-69.16,,,,,,,
48061.77,-0.00032,-72.11,,,,,,,
48061.79,-0.00035,-74.89,,,,,,,
48061.82,-0.00038,-78.02,,,,,,,
48061.85,-0.0004,-81.42,,,,,,,
48061.89,-0.00043,-85.58,,,,,,,
48061.92,-0.00045,-89.72,,,,,,,
48061.95,-0.00048,-93.66,,,,,,,
48061.97,-0.0005,-97.4,,,,,,,
48061.99,-0.00053,-100.7,,,,,,,
48062.02,-0.00055,-104.2,,,,,,,
48062.05,-0.00058,-107.9,,,,,,,
48062.08,-0.0006,-111.7,,,,,,,
48062.11,-0.00063,-115.7,,,,,,,
48062.14,-0.00065,-119.2,,,,,,,
48062.16,-0.00068,-122.9,,,,,,,
48062.19,-0.0007,-126.5,,,,,,,
48062.21,-0.00073,-130.8,,,,,,,
48062.23,-0.00076,-134.9,,,,,,,
48062.25,-0.00078,-138.7,,,,,,,
48062.27,-0.00081,-142.2,,,,,,,
48062.29,-0.00083,-145.8,,,,,,,
48062.31,-0.00086,-149.1,,,,,,,
48062.33,-0.00088,-152.4,,,,,,,
48062.35,-0.00091,-155.7,,,,,,,
48062.37,-0.00094,-159.0,,,,,,,
48062.4,-0.00096,-162.1,,,,,,,
48062.42,-0.00099,-165.2,,,,,,,
48062.44,-0.00101,-168.4,,,,,,,
48062.47,-0.00104,-171.4,,,,,,,
48062.49,-0.00107,-174.7,,,,,,,
48062.52,-0.00109,-177.8,,,,,,,
48062.54,-0.00112,-180.9,,,,,,,
48062.56,-0.00114,-183.6,,,,,,,
48062.59,-0.00117,-186.2,,,,,,,
48062.62,-0.00119,-189.1,,,,,,,
48062.65,-0.00122,-192.0,,,,,,,
48062.67,-0.00125,-193.7,,,,,,,
48062.68,-0.00127,-194.6,,,,,,,
48062.69,-0.0013,-195.3,,,,,,,
48062.69,-0.00133,-195.8,,,,,,,
48062.7,-0.00135,-195.7,,,,,,,
48062.71,-0.00138,-195.2,,,,,,,
48062.72,-0.00141,-194.6,,,,,,,
48062.73,-0.00143,-193.3,,,,,,,
48062.78,-0.00141,-180.0,,,,,,,
48062.79,-0.00138,-177.4,,,,,,,
48062.81,-0.00136,-176.5,,,,,,,
48062.86,-0.00138,-187.3,,,,,,,
48062.88,-0.00141,-191.4,,,,,,,
48062.89,-0.00143,-194.1,,,,,,,
48062.9,-0.00146,-195.9,,,,,,,
48062.91,-0.00148,-196.5,,,,,,,
48062.93,-0.00151,-193.2,,,,,,,
48062.96,-0.00148,-182.0,,,,,,,
48062.98,-0.00146,-176.5,,,,,,,
48062.99,-0.00143,-172.1,,,,,,,
48062.99,-0.00141,-168.3,,,,,,,
48063.0,-0.00138,-164.5,,,,,,,
48063.01,-0.00135,-161.2,,,,,,,
48063.02,-0.00133,-158.4,,,,,,,
48063.03,-0.0013,-155.9,,,,,,,
48063.05,-0.00128,-153.7,,,,,,,
48063.08,-0.00125,-151.9,,,,,,,
48063.17,-0.00123,-143.4,,,,,,,
48063.19,-0.0012,-138.8,,,,,,,
48063.21,-0.00117,-134.9,,,,,,,
48063.23,-0.00115,-131.2,,,,,,,
48063.24,-0.00112,-128.0,,,,,,,
48063.26,-0.0011,-124.9,,,,,,,
48063.29,-0.00107,-122.0,,,,,,,
48063.32,-0.00105,-119.0,,,,,,,
48063.35,-0.00102,-115.6,,,,,,,
48063.39,-0.00099,-111.6,,,,,,,
48063.41,-0.00097,-107.8,,,,,,,
48063.44,-0.00094,-104.0,,,,,,,
48063.46,-0.00092,-100.1,,,,,,,
48063.49,-0.00089,-96.18,,,,,,,
48063.52,-0.00087,-92.2,,,,,,,
48063.55,-0.00084,-88.14,,,,,,,
48063.57,-0.00082,-84.1,,,,,,,
48063.6,-0.00079,-80.31,,,,,,,
48063.62,-0.00076,-76.58,,,,,,,
48063.65,-0.00074,-72.76,,,,,,,
48063.67,-0.00071,-69.18,,,,,,,
48063.7,-0.00069,-65.54,,,,,,,
48063.73,-0.00066,-62.04,,,,,,,
48063.75,-0.00064,-58.67,,,,,,,
48063.78,-0.00061,-55.4,,,,,,,
48063.8,-0.00059,-51.98,,,,,,,
48063.83,-0.00056,-48.44,,,,,,,
48063.86,-0.00054,-44.93,,,,,,,
48063.89,-0.00051,-41.24,,,,,,,
48063.91,-0.00048,-37.16,,,,,,,
48063.94,-0.00046,-33.23,,,,,,,
48063.96,-0.00043,-29.58,,,,,,,
48063.99,-0.00041,-26.01,,,,,,,
48064.01,-0.00038,-22.54,,,,,,,
48064.04,-0.00036,-19.24,,,,,,,
48064.06,-0.00033,-15.76,,,,,,,
48064.09,-0.00031,-12.41,,,,,,,
48064.12,-0.00028,-8.85,,,,,,,
48064.15,-0.00026,-5.03,,,,,,,
48064.18,-0.00023,-1.05,,,,,,,
48064.21,-0.0002,2.75,,,,,,,
48064.23,-0.00018,6.54,,,,,,,
48064.25,-0.00015,9.87,,,,,,,
48064.28,-0.00013,13.27,,,,,,,
48064.3,-0.0001,16.71,,,,,,,
48064.33,-8e-05,20.12,,,,,,,
48064.36,-5e-05,23.4,,,,,,,
48064.39,-3e-05,26.46,,,,,,,
48064.42,-0.0,29.47,,,,,,,
48064.45,2e-05,31.92,,,,,,,
48064.55,5e-05,38.13,,,,,,,
48064.56,8e-05,44.63,,,,,,,
48064.58,0.0001,49.35,,,,,,,
48064.59,0.00013,53.59,,,,,,,
48064.6,0.00016,57.02,,,,,,,
48064.61,0.00018,59.97,,,,,,,
48064.62,0.00021,62.65,,,,,,,
48064.63,0.00024,64.67,,,,,,,
48064.64,0.00026,66.12,,,,,,,
48064.67,0.00029,66.33,,,,,,,
48064.77,0.00031,71.84,,,,,,,
48064.8,0.00034,76.29,,,,,,,
48064.81,0.00037,80.09,,,,,,,
48064.83,0.00039,83.39,,,,,,,
48064.85,0.00042,86.43,,,,,,,
48064.88,0.00044,89.2,,,,,,,
48064.9,0.00047,92.07,,,,,,,
48064.94,0.00049,95.04,,,,,,,
48064.98,0.00052,98.95,,,,,,,
48065.01,0.00054,103.22,,,,,,,
48065.03,0.00057,107.29,,,,,,,
48065.06,0.00059,111.06,,,,,,,
48065.08,0.00062,114.49,,,,,,,
48065.11,0.00064,117.75,,,,,,,
48065.13,0.00067,120.65,,,,,,,
48065.16,0.0007,123.62,,,,,,,
48065.19,0.00072,126.61,,,,,,,
48065.22,0.00075,129.85,,,,,,,
48065.24,0.00077,133.07,,,,,,,
48065.27,0.0008,136.24,,,,,,,
48065.3,0.00082,139.52,,,,,,,
48065.32,0.00085,142.49,,,,,,,
48065.35,0.00087,145.34,,,,,,,
48065.37,0.0009,148.31,,,,,,,
48065.4,0.00092,151.39,,,,,,,
48065.42,0.00095,154.98,,,,,,,
48065.45,0.00098,158.76,,,,,,,
48065.48,0.001,162.3,,,,,,,
48065.49,0.00103,165.89,,,,,,,
48065.52,0.00105,169.23,,,,,,,
48065.54,0.00108,172.46,,,,,,,
48065.56,0.00111,175.45,,,,,,,
48065.58,0.00113,178.27,,,,,,,
48065.6,0.00116,181.24,,,,,,,
48065.62,0.00118,183.97,,,,,,,
48065.65,0.00121,186.69,,,,,,,
48065.67,0.00123,189.55,,,,,,,
48065.7,0.00126,191.64,,,,,,,
48065.71,0.00128,192.11,,,,,,,
48065.72,0.00131,193.04,,,,,,,
48065.73,0.00133,193.72,,,,,,,
48065.73,0.00136,194.43,,,,,,,
48065.74,0.00139,194.53,,,,,,,
