time,strain,stress,temperature,type,strain_rate,max_strain,title,youngs,poissons
0.0,2e-05,12.6,950,fatigue,0.001,0.00202,43-9,144000,0.3
0.04,4e-05,15.77,,,,,,,
0.09,7e-05,19.95,,,,,,,
0.14,9e-05,24.12,,,,,,,
0.17,0.00012,27.27,,,,,,,
0.19,0.00014,30.8,,,,,,,
0.21,0.00017,33.99,,,,,,,
0.23,0.0002,37.59,,,,,,,
0.25,0.00022,40.76,,,,,,,
0.27,0.00025,43.92,,,,,,,
0.3,0.00027,47.12,,,,,,,
0.33,0.0003,49.99,,,,,,,
0.35,0.00032,52.65,,,,,,,
0.38,0.00035,55.69,,,,,,,
0.43,0.00037,59.37,,,,,,,
0.46,0.0004,62.63,,,,,,,
0.51,0.00042,66.78,,,,,,,
0.54,0.00045,69.92,,,,,,,
0.57,0.00048,73.13,,,,,,,
0.59,0.0005,76.12,,,,,,,
0.62,0.00053,79.64,,,,,,,
0.65,0.00055,83.08,,,,,,,
0.68,0.00058,86.68,,,,,,,
0.71,0.0006,89.98,,,,,,,
0.73,0.00063,93.47,,,,,,,
0.75,0.00065,97.19,,,,,,,
0.78,0.00068,100.88,,,,,,,
0.79,0.00071,104.41,,,,,,,
0.81,0.00073,107.27,,,,,,,
0.83,0.00076,110.38,,,,,,,
0.85,0.00078,114.03,,,,,,,
0.87,0.00081,117.08,,,,,,,
0.88,0.00083,119.86,,,,,,,
0.9,0.00086,122.76,,,,,,,
0.92,0.00089,125.82,,,,,,,
0.94,0.00091,129.18,,,,,,,
0.97,0.00094,132.7,,,,,,,
0.99,0.00096,136.03,,,,,,,
1.01,0.00099,138.99,,,,,,,
1.04,0.00101,142.06,,,,,,,
1.06,0.00104,145.6,,,,,,,
1.09,0.00106,148.93,,,,,,,
1.11,0.00109,151.59,,,,,,,
1.13,0.00112,154.39,,,,,,,
1.16,0.00114,157.4,,,,,,,
1.18,0.00117,159.68,,,,,,,
1.2,0.00119,161.16,,,,,,,
1.21,0.00122,161.52,,,,,,,
1.21,0.00125,161.37,,,,,,,
1.22,0.00128,161.3,,,,,,,
1.22,0.0013,161.33,,,,,,,
1.22,0.00133,161.38,,,,,,,
1.23,0.00136,161.51,,,,,,,
1.23,0.00138,161.62,,,,,,,
1.23,0.00141,161.78,,,,,,,
1.24,0.00144,161.94,,,,,,,
1.25,0.00147,162.03,,,,,,,
1.25,0.00149,162.01,,,,,,,
1.27,0.00152,161.57,,,,,,,
1.37,0.00149,151.61,,,,,,,
1.42,0.00147,146.85,,,,,,,
1.48,0.00144,142.52,,,,,,,
1.53,0.00142,137.55,,,,,,,
1.57,0.00139,133.04,,,,,,,
1.61,0.00137,128.39,,,,,,,
1.63,0.00134,124.54,,,,,,,
1.66,0.00131,120.79,,,,,,,
1.68,0.00129,117.36,,,,,,,
1.7,0.00126,113.93,,,,,,,
1.73,0.00124,110.32,,,,,,,
1.75,0.00121,106.7,,,,,,,
1.78,0.00119,103.51,,,,,,,
1.8,0.00116,100.23,,,,,,,
1.83,0.00114,96.39,,,,,,,
1.86,0.00111,92.82,,,,,,,
1.89,0.00109,89.47,,,,,,,
1.91,0.00106,86.3,,,,,,,
1.94,0.00104,83.05,,,,,,,
1.96,0.00101,79.8,,,,,,,
1.99,0.00098,76.21,,,,,,,
2.02,0.00096,72.83,,,,,,,
2.05,0.00093,69.25,,,,,,,
2.08,0.00091,65.75,,,,,,,
2.11,0.00088,62.16,,,,,,,
2.14,0.00086,58.82,,,,,,,
2.17,0.00083,55.33,,,,,,,
2.19,0.00081,51.89,,,,,,,
2.22,0.00078,48.66,,,,,,,
2.25,0.00076,45.49,,,,,,,
2.27,0.00073,42.09,,,,,,,
2.3,0.0007,38.64,,,,,,,
2.33,0.00068,35.47,,,,,,,
2.35,0.00065,32.11,,,,,,,
2.39,0.00063,28.2,,,,,,,
2.42,0.0006,24.41,,,,,,,
2.45,0.00058,21.03,,,,,,,
2.47,0.00055,17.34,,,,,,,
2.5,0.00053,13.59,,,,,,,
2.53,0.0005,10.26,,,,,,,
2.56,0.00048,6.96,,,,,,,
2.58,0.00045,3.69,,,,,,,
2.61,0.00042,0.44,,,,,,,
2.64,0.0004,-3.58,,,,,,,
2.67,0.00037,-7.53,,,,,,,
2.7,0.00035,-10.89,,,,,,,
2.73,0.00032,-14.02,,,,,,,
2.76,0.0003,-17.42,,,,,,,
2.85,0.00027,-19.73,,,,,,,
2.92,0.00025,-23.76,,,,,,,
2.96,0.00022,-26.67,,,,,,,
3.0,0.0002,-30.36,,,,,,,
3.02,0.00017,-34.08,,,,,,,
3.05,0.00015,-37.85,,,,,,,
3.08,0.00012,-42.18,,,,,,,
3.09,9e-05,-46.04,,,,,,,
3.11,7e-05,-49.52,,,,,,,
3.13,4e-05,-52.72,,,,,,,
3.14,2e-05,-55.81,,,,,,,
3.16,-1e-05,-58.98,,,,,,,
3.18,-3e-05,-62.42,,,,,,,
3.2,-6e-05,-65.71,,,,,,,
3.23,-8e-05,-69.36,,,,,,,
3.26,-0.00011,-74.2,,,,,,,
3.29,-0.00014,-78.43,,,,,,,
3.31,-0.00016,-82.45,,,,,,,
3.33,-0.00019,-86.45,,,,,,,
3.34,-0.00021,-90.59,,,,,,,
3.36,-0.00024,-94.36,,,,,,,
3.38,-0.00026,-97.82,,,,,,,
3.39,-0.00029,-101.21,,,,,,,
3.41,-0.00031,-104.56,,,,,,,
3.42,-0.00034,-108.03,,,,,,,
3.44,-0.00037,-111.32,,,,,,,
3.46,-0.00039,-114.45,,,,,,,
3.48,-0.00042,-117.97,,,,,,,
3.5,-0.00044,-121.27,,,,,,,
3.52,-0.00047,-124.68,,,,,,,
3.54,-0.00049,-128.06,,,,,,,
3.56,-0.00052,-131.16,,,,,,,
3.58,-0.00055,-133.56,,,,,,,
3.6,-0.00057,-135.73,,,,,,,
3.62,-0.0006,-137.5,,,,,,,
3.63,-0.00062,-139.34,,,,,,,
3.64,-0.00065,-140.44,,,,,,,
3.66,-0.00067,-141.34,,,,,,,
3.67,-0.0007,-142.3,,,,,,,
3.68,-0.00072,-143.1,,,,,,,
3.69,-0.00075,-143.76,,,,,,,
3.71,-0.00078,-144.26,,,,,,,
3.73,-0.0008,-144.89,,,,,,,
3.78,-0.00083,-145.4,,,,,,,
3.87,-0.00085,-147.22,,,,,,,
3.92,-0.00088,-150.07,,,,,,,
3.96,-0.0009,-153.03,,,,,,,
3.98,-0.00093,-155.8,,,,,,,
4.01,-0.00095,-158.32,,,,,,,
4.03,-0.00098,-159.32,,,,,,,
4.04,-0.00101,-159.44,,,,,,,
4.04,-0.00104,-159.47,,,,,,,
4.04,-0.00107,-159.45,,,,,,,
4.04,-0.0011,-159.55,,,,,,,
4.05,-0.00113,-159.75,,,,,,,
4.05,-0.00115,-160.12,,,,,,,
4.06,-0.00118,-160.72,,,,,,,
4.07,-0.00121,-161.11,,,,,,,
4.08,-0.00123,-161.35,,,,,,,
4.12,-0.00126,-160.76,,,,,,,
4.29,-0.00128,-155.32,,,,,,,
4.34,-0.00131,-157.12,,,,,,,
4.37,-0.00133,-159.19,,,,,,,
4.4,-0.00136,-161.37,,,,,,,
4.42,-0.00139,-162.97,,,,,,,
4.46,-0.00141,-163.96,,,,,,,
4.6,-0.00139,-151.67,,,,,,,
4.63,-0.00136,-145.85,,,,,,,
4.65,-0.00133,-141.07,,,,,,,
4.67,-0.00131,-136.83,,,,,,,
4.69,-0.00128,-132.72,,,,,,,
4.71,-0.00126,-128.42,,,,,,,
4.73,-0.00123,-124.21,,,,,,,
4.75,-0.00121,-120.44,,,,,,,
4.77,-0.00118,-116.84,,,,,,,
4.79,-0.00116,-112.94,,,,,,,
4.81,-0.00113,-109.02,,,,,,,
4.84,-0.0011,-104.98,,,,,,,
4.87,-0.00108,-101.07,,,,,,,
4.89,-0.00105,-97.72,,,,,,,
4.92,-0.00103,-93.72,,,,,,,
4.95,-0.001,-89.43,,,,,,,
4.98,-0.00098,-85.61,,,,,,,
5.0,-0.00095,-82.07,,,,,,,
5.03,-0.00093,-78.65,,,,,,,
5.06,-0.0009,-74.67,,,,,,,
5.09,-0.00087,-71.29,,,,,,,
5.11,-0.00085,-67.58,,,,,,,
5.15,-0.00082,-63.47,,,,,,,
5.18,-0.0008,-59.65,,,,,,,
5.2,-0.00077,-56.46,,,,,,,
5.22,-0.00075,-53.26,,,,,,,
5.25,-0.00072,-49.92,,,,,,,
5.28,-0.0007,-46.58,,,,,,,
5.31,-0.00067,-42.76,,,,,,,
5.33,-0.00065,-39.47,,,,,,,
5.36,-0.00062,-36.04,,,,,,,
5.39,-0.0006,-32.86,,,,,,,
5.41,-0.00057,-29.31,,,,,,,
5.44,-0.00054,-25.74,,,,,,,
5.47,-0.00052,-22.34,,,,,,,
5.5,-0.00049,-19.05,,,,,,,
5.53,-0.00047,-15.55,,,,,,,
5.55,-0.00044,-12.5,,,,,,,
5.58,-0.00042,-8.7,,,,,,,
5.61,-0.00039,-5.4,,,,,,,
5.63,-0.00037,-2.15,,,,,,,
5.66,-0.00034,1.3,,,,,,,
5.69,-0.00032,4.77,,,,,,,
5.71,-0.00029,7.74,,,,,,,
5.74,-0.00026,10.67,,,,,,,
5.77,-0.00024,14.0,,,,,,,
5.8,-0.00021,17.45,,,,,,,
5.83,-0.00019,20.96,,,,,,,
5.86,-0.00016,24.29,,,,,,,
5.9,-0.00014,27.2,,,,,,,
5.95,-0.00011,30.21,,,,,,,
6.0,-9e-05,33.32,,,,,,,
6.04,-6e-05,36.1,,,,,,,
6.08,-4e-05,39.8,,,,,,,
6.1,-1e-05,43.71,,,,,,,
6.12,2e-05,47.21,,,,,,,
6.14,4e-05,50.41,,,,,,,
6.16,7e-05,53.72,,,,,,,
6.18,9e-05,56.99,,,,,,,
6.2,0.00012,60.15,,,,,,,
6.23,0.00014,63.24,,,,,,,
6.26,0.00017,66.1,,,,,,,
6.29,0.0002,68.99,,,,,,,
6.32,0.00022,72.23,,,,,,,
6.36,0.00025,75.56,,,,,,,
6.39,0.00027,78.5,,,,,,,
6.42,0.0003,81.13,,,,,,,
6.45,0.00032,83.92,,,,,,,
6.49,0.00035,87.64,,,,,,,
6.52,0.00037,90.43,,,,,,,
6.54,0.0004,93.13,,,,,,,
6.57,0.00042,96.32,,,,,,,
6.6,0.00045,99.83,,,,,,,
6.62,0.00048,103.04,,,,,,,
6.63,0.0005,106.38,,,,,,,
6.65,0.00053,109.61,,,,,,,
6.67,0.00055,112.99,,,,,,,
6.69,0.00058,116.21,,,,,,,
6.7,0.0006,118.98,,,,,,,
6.71,0.00063,121.82,,,,,,,
6.73,0.00066,124.83,,,,,,,
6.75,0.00068,127.7,,,,,,,
6.76,0.00071,130.4,,,,,,,
6.78,0.00073,133.49,,,,,,,
6.8,0.00076,136.51,,,,,,,
6.83,0.00078,139.47,,,,,,,
6.85,0.00081,142.32,,,,,,,
6.87,0.00084,144.79,,,,,,,
6.89,0.00086,146.97,,,,,,,
6.9,0.00089,148.46,,,,,,,
6.92,0.00091,149.82,,,,,,,
6.92,0.00094,150.52,,,,,,,
6.93,0.00096,150.81,,,,,,,
6.94,0.00099,150.95,,,,,,,
6.94,0.00102,151.34,,,,,,,
6.95,0.00105,151.72,,,,,,,
6.96,0.00107,152.27,,,,,,,
6.98,0.0011,152.82,,,,,,,
7.01,0.00112,152.72,,,,,,,
7.14,0.00115,151.11,,,,,,,
7.19,0.00117,153.22,,,,,,,
7.23,0.0012,155.81,,,,,,,
7.25,0.00122,158.23,,,,,,,
7.28,0.00125,160.48,,,,,,,
7.3,0.00127,162.74,,,,,,,
7.32,0.0013,164.88,,,,,,,
7.34,0.00133,166.69,,,,,,,
7.35,0.00135,164.34,,,,,,,
7.36,0.00138,164.56,,,,,,,
7.36,0.00142,164.79,,,,,,,
7.36,0.00147,164.98,,,,,,,
7.36,0.00152,165.13,,,,,,,
7.37,0.00156,165.32,,,,,,,
7.37,0.00159,165.51,,,,,,,
7.4,0.00161,166.36,,,,,,,
7.53,0.00159,154.09,,,,,,,
7.59,0.00156,148.36,,,,,,,
7.63,0.00154,143.32,,,,,,,
7.67,0.00151,138.6,,,,,,,
7.69,0.00149,134.51,,,,,,,
7.72,0.00146,129.78,,,,,,,
7.75,0.00144,125.76,,,,,,,
7.77,0.00141,122.16,,,,,,,
7.79,0.00139,118.4,,,,,,,
7.82,0.00136,114.55,,,,,,,
7.85,0.00133,110.51,,,,,,,
7.88,0.00131,106.22,,,,,,,
7.9,0.00128,102.58,,,,,,,
7.92,0.00126,99.17,,,,,,,
7.95,0.00123,95.57,,,,,,,
7.98,0.00121,91.91,,,,,,,
8.01,0.00118,88.06,,,,,,,
8.04,0.00116,84.16,,,,,,,
8.07,0.00113,80.2,,,,,,,
8.09,0.00111,76.48,,,,,,,
8.12,0.00108,73.0,,,,,,,
8.15,0.00106,69.64,,,,,,,
8.17,0.00103,66.35,,,,,,,
8.2,0.001,62.95,,,,,,,
8.22,0.00098,59.55,,,,,,,
8.25,0.00095,55.62,,,,,,,
8.29,0.00093,51.81,,,,,,,
8.31,0.0009,48.32,,,,,,,
8.34,0.00088,44.7,,,,,,,
8.37,0.00085,41.12,,,,,,,
8.4,0.00082,37.64,,,,,,,
8.43,0.0008,33.97,,,,,,,
8.46,0.00077,29.81,,,,,,,
8.49,0.00075,26.13,,,,,,,
8.51,0.00072,22.53,,,,,,,
8.54,0.0007,19.08,,,,,,,
8.57,0.00067,15.76,,,,,,,
8.59,0.00065,12.61,,,,,,,
8.62,0.00062,9.41,,,,,,,
8.65,0.0006,5.46,,,,,,,
8.67,0.00057,2.3,,,,,,,
8.7,0.00054,-0.63,,,,,,,
8.72,0.00052,-3.42,,,,,,,
8.75,0.00049,-6.44,,,,,,,
8.77,0.00047,-9.51,,,,,,,
8.8,0.00044,-12.75,,,,,,,
8.84,0.00042,-15.73,,,,,,,
8.95,0.00039,-18.83,,,,,,,
9.01,0.00037,-22.89,,,,,,,
9.04,0.00034,-25.76,,,,,,,
9.08,0.00032,-28.92,,,,,,,
9.11,0.00029,-31.95,,,,,,,
9.14,0.00027,-35.3,,,,,,,
9.17,0.00024,-39.21,,,,,,,
9.19,0.00022,-43.07,,,,,,,
9.21,0.00019,-46.7,,,,,,,
9.24,0.00016,-50.58,,,,,,,
9.25,0.00014,-53.86,,,,,,,
9.27,0.00011,-56.85,,,,,,,
9.28,9e-05,-59.65,,,,,,,
9.3,6e-05,-62.84,,,,,,,
9.32,4e-05,-65.92,,,,,,,
9.33,1e-05,-68.83,,,,,,,
9.35,-1e-05,-71.94,,,,,,,
9.37,-4e-05,-75.12,,,,,,,
9.39,-7e-05,-78.4,,,,,,,
9.4,-9e-05,-81.51,,,,,,,
9.42,-0.00012,-84.42,,,,,,,
9.43,-0.00014,-87.19,,,,,,,
9.45,-0.00017,-89.92,,,,,,,
9.46,-0.00019,-92.53,,,,,,,
9.48,-0.00022,-95.32,,,,,,,
9.5,-0.00024,-98.37,,,,,,,
9.52,-0.00027,-101.45,,,,,,,
9.53,-0.0003,-104.05,,,,,,,
9.55,-0.00032,-106.83,,,,,,,
9.58,-0.00035,-109.64,,,,,,,
9.6,-0.00037,-112.16,,,,,,,
9.62,-0.0004,-114.63,,,,,,,
9.64,-0.00042,-117.21,,,,,,,
9.67,-0.00045,-119.73,,,,,,,
9.69,-0.00047,-121.99,,,,,,,
9.71,-0.0005,-124.51,,,,,,,
9.74,-0.00052,-126.82,,,,,,,
9.76,-0.00055,-129.08,,,,,,,
9.79,-0.00058,-131.35,,,,,,,
9.81,-0.0006,-133.55,,,,,,,
9.83,-0.00062,-134.84,,,,,,,
9.84,-0.00063,-135.84,,,,,,,
9.87,-0.00065,-138.15,,,,,,,
9.9,-0.00068,-140.44,,,,,,,
9.92,-0.0007,-142.6,,,,,,,
9.95,-0.00073,-144.79,,,,,,,
9.98,-0.00075,-146.97,,,,,,,
10.0,-0.00078,-148.9,,,,,,,
10.02,-0.00081,-150.4,,,,,,,
10.04,-0.00083,-151.55,,,,,,,
10.06,-0.00086,-153.38,,,,,,,
10.07,-0.00089,-152.65,,,,,,,
10.08,-0.00092,-152.89,,,,,,,
10.08,-0.00095,-153.0,,,,,,,
10.08,-0.00098,-153.14,,,,,,,
10.08,-0.00101,-153.29,,,,,,,
10.12,-0.00104,-154.3,,,,,,,
10.21,-0.00106,-151.27,,,,,,,
10.28,-0.00109,-150.39,,,,,,,
10.33,-0.00111,-151.47,,,,,,,
10.37,-0.00114,-153.2,,,,,,,
10.4,-0.00116,-155.01,,,,,,,
10.43,-0.00119,-157.16,,,,,,,
10.45,-0.00121,-159.16,,,,,,,
10.48,-0.00124,-161.18,,,,,,,
10.5,-0.00127,-163.16,,,,,,,
10.52,-0.00129,-164.96,,,,,,,
10.55,-0.00132,-166.9,,,,,,,
10.58,-0.00134,-164.77,,,,,,,
10.58,-0.00138,-165.02,,,,,,,
10.58,-0.00141,-165.14,,,,,,,
10.58,-0.00145,-165.24,,,,,,,
10.58,-0.00149,-165.37,,,,,,,
10.59,-0.00152,-165.55,,,,,,,
10.61,-0.00154,-166.84,,,,,,,
10.65,-0.00157,-166.2,,,,,,,
10.85,-0.00154,-148.89,,,,,,,
10.87,-0.00152,-143.98,,,,,,,
10.9,-0.00149,-139.18,,,,,,,
10.92,-0.00146,-134.6,,,,,,,
10.95,-0.00144,-130.28,,,,,,,
10.96,-0.00141,-126.64,,,,,,,
10.98,-0.00139,-123.14,,,,,,,
11.0,-0.00136,-119.44,,,,,,,
11.02,-0.00134,-115.94,,,,,,,
11.04,-0.00131,-112.24,,,,,,,
11.07,-0.00129,-108.66,,,,,,,
11.1,-0.00126,-104.58,,,,,,,
11.13,-0.00124,-100.35,,,,,,,
11.15,-0.00121,-96.86,,,,,,,
11.17,-0.00119,-93.66,,,,,,,
11.2,-0.00116,-90.36,,,,,,,
11.23,-0.00113,-86.89,,,,,,,
11.25,-0.00111,-83.72,,,,,,,
11.28,-0.00108,-80.52,,,,,,,
11.31,-0.00106,-77.0,,,,,,,
11.33,-0.00103,-73.46,,,,,,,
11.36,-0.00101,-69.87,,,,,,,
11.39,-0.00098,-66.27,,,,,,,
11.42,-0.00096,-63.06,,,,,,,
11.45,-0.00093,-60.14,,,,,,,
11.47,-0.00091,-57.43,,,,,,,
11.49,-0.00088,-54.54,,,,,,,
11.52,-0.00086,-51.24,,,,,,,
11.55,-0.00083,-47.23,,,,,,,
11.58,-0.00081,-43.74,,,,,,,
11.62,-0.00078,-40.02,,,,,,,
11.65,-0.00076,-36.07,,,,,,,
11.67,-0.00073,-32.98,,,,,,,
11.7,-0.0007,-29.69,,,,,,,
11.73,-0.00068,-25.76,,,,,,,
11.76,-0.00065,-21.97,,,,,,,
11.79,-0.00063,-18.41,,,,,,,
11.81,-0.0006,-15.14,,,,,,,
11.84,-0.00058,-11.59,,,,,,,
11.86,-0.00055,-8.5,,,,,,,
11.89,-0.00053,-5.53,,,,,,,
11.91,-0.0005,-2.67,,,,,,,
11.93,-0.00048,0.39,,,,,,,
11.96,-0.00045,3.56,,,,,,,
11.99,-0.00042,6.8,,,,,,,
12.02,-0.0004,10.48,,,,,,,
12.06,-0.00037,14.25,,,,,,,
12.09,-0.00035,17.69,,,,,,,
12.12,-0.00032,21.09,,,,,,,
12.14,-0.0003,24.13,,,,,,,
12.17,-0.00027,26.83,,,,,,,
12.21,-0.00025,29.17,,,,,,,
12.26,-0.00022,31.61,,,,,,,
26.33,-0.00023,73.21,,,,,,,
26.35,-0.0002,75.68,,,,,,,
26.38,-0.00018,78.11,,,,,,,
26.42,-0.00015,80.55,,,,,,,
26.45,-0.00013,82.89,,,,,,,
26.47,-0.0001,85.22,,,,,,,
26.5,-7e-05,87.59,,,,,,,
26.53,-5e-05,90.05,,,,,,,
26.56,-2e-05,92.56,,,,,,,
26.58,0.0,95.4,,,,,,,
26.61,3e-05,98.46,,,,,,,
26.62,5e-05,101.36,,,,,,,
26.64,8e-05,104.27,,,,,,,
26.66,0.0001,107.0,,,,,,,
26.67,0.00013,109.86,,,,,,,
26.69,0.00016,112.69,,,,,,,
26.71,0.00018,115.55,,,,,,,
26.73,0.00021,118.19,,,,,,,
26.74,0.00024,120.93,,,,,,,
26.76,0.00026,123.37,,,,,,,
26.78,0.00029,125.53,,,,,,,
26.79,0.00031,127.96,,,,,,,
26.81,0.00034,130.02,,,,,,,
26.83,0.00036,132.01,,,,,,,
26.85,0.00039,134.01,,,,,,,
26.87,0.00042,135.73,,,,,,,
26.88,0.00044,137.41,,,,,,,
26.9,0.00047,138.9,,,,,,,
26.92,0.00049,140.35,,,,,,,
26.95,0.00052,141.7,,,,,,,
26.97,0.00054,143.11,,,,,,,
26.99,0.00057,144.28,,,,,,,
27.02,0.00059,145.42,,,,,,,
27.04,0.00062,146.41,,,,,,,
27.06,0.00065,147.48,,,,,,,
27.09,0.00067,148.52,,,,,,,
27.11,0.0007,149.44,,,,,,,
27.14,0.00072,150.33,,,,,,,
27.17,0.00075,151.19,,,,,,,
27.19,0.00077,152.17,,,,,,,
27.22,0.0008,153.16,,,,,,,
27.24,0.00082,154.11,,,,,,,
27.27,0.00085,155.07,,,,,,,
27.29,0.00087,155.87,,,,,,,
27.32,0.0009,156.75,,,,,,,
27.34,0.00092,157.66,,,,,,,
27.37,0.00095,158.52,,,,,,,
27.4,0.00098,159.54,,,,,,,
27.42,0.001,160.47,,,,,,,
27.45,0.00103,161.37,,,,,,,
27.48,0.00105,162.3,,,,,,,
27.5,0.00108,163.13,,,,,,,
27.52,0.0011,163.87,,,,,,,
27.54,0.00113,164.5,,,,,,,
27.56,0.00116,165.26,,,,,,,
27.59,0.00118,165.98,,,,,,,
27.62,0.00121,166.7,,,,,,,
27.65,0.00123,167.41,,,,,,,
27.67,0.00126,168.11,,,,,,,
27.7,0.00128,168.81,,,,,,,
27.72,0.00131,169.42,,,,,,,
27.75,0.00133,170.17,,,,,,,
27.77,0.00136,170.76,,,,,,,
27.79,0.00138,171.3,,,,,,,
27.82,0.00141,171.77,,,,,,,
27.84,0.00144,172.26,,,,,,,
27.86,0.00146,172.61,,,,,,,
27.88,0.00149,172.87,,,,,,,
27.9,0.00151,173.09,,,,,,,
27.92,0.00154,173.19,,,,,,,
27.94,0.00156,173.14,,,,,,,
27.96,0.00159,172.95,,,,,,,
27.98,0.00161,172.59,,,,,,,
28.01,0.00164,172.2,,,,,,,
28.03,0.00166,171.6,,,,,,,
28.06,0.00169,170.95,,,,,,,
28.09,0.00172,170.25,,,,,,,
28.12,0.00174,169.43,,,,,,,
28.15,0.00177,168.78,,,,,,,
28.18,0.00179,168.25,,,,,,,
28.21,0.00182,167.94,,,,,,,
28.24,0.00184,167.92,,,,,,,
28.27,0.00187,167.48,,,,,,,
28.31,0.00189,165.72,,,,,,,
28.42,0.00187,149.23,,,,,,,
28.44,0.00184,143.0,,,,,,,
28.47,0.00182,137.21,,,,,,,
28.49,0.00179,131.72,,,,,,,
28.51,0.00176,126.67,,,,,,,
28.53,0.00174,122.21,,,,,,,
28.55,0.00171,117.84,,,,,,,
28.56,0.00169,113.71,,,,,,,
28.58,0.00166,109.59,,,,,,,
28.61,0.00163,105.24,,,,,,,
28.63,0.00161,101.17,,,,,,,
28.65,0.00158,97.28,,,,,,,
28.67,0.00156,93.53,,,,,,,
28.69,0.00153,89.99,,,,,,,
28.72,0.00151,86.05,,,,,,,
28.74,0.00148,82.63,,,,,,,
28.77,0.00146,79.13,,,,,,,
28.79,0.00143,75.89,,,,,,,
28.82,0.00141,72.53,,,,,,,
28.84,0.00138,69.07,,,,,,,
28.87,0.00135,65.52,,,,,,,
28.9,0.00133,62.25,,,,,,,
28.93,0.0013,58.94,,,,,,,
28.95,0.00128,55.9,,,,,,,
28.98,0.00125,52.31,,,,,,,
29.01,0.00123,49.13,,,,,,,
29.04,0.0012,46.0,,,,,,,
29.06,0.00118,43.03,,,,,,,
29.09,0.00115,40.04,,,,,,,
29.11,0.00112,36.99,,,,,,,
29.14,0.0011,33.98,,,,,,,
29.17,0.00107,31.04,,,,,,,
29.19,0.00105,28.26,,,,,,,
29.21,0.00102,25.48,,,,,,,
29.24,0.001,22.94,,,,,,,
29.27,0.00097,20.14,,,,,,,
29.29,0.00095,17.23,,,,,,,
29.32,0.00092,14.6,,,,,,,
29.35,0.00089,11.36,,,,,,,
29.39,0.00087,7.88,,,,,,,
29.42,0.00084,4.76,,,,,,,
29.45,0.00082,1.52,,,,,,,
29.48,0.00079,-1.81,,,,,,,
29.51,0.00077,-5.23,,,,,,,
29.54,0.00074,-8.43,,,,,,,
29.56,0.00072,-11.5,,,,,,,
29.59,0.00069,-14.39,,,,,,,
29.62,0.00066,-16.83,,,,,,,
29.73,0.00064,-18.53,,,,,,,
29.78,0.00061,-21.13,,,,,,,
29.82,0.00059,-23.92,,,,,,,
29.83,0.00058,-24.98,,,,,,,
29.85,0.00056,-26.84,,,,,,,
29.89,0.00054,-29.46,,,,,,,
29.92,0.00051,-32.56,,,,,,,
29.96,0.00049,-35.74,,,,,,,
29.99,0.00046,-39.14,,,,,,,
30.01,0.00044,-43.21,,,,,,,
30.04,0.00041,-47.01,,,,,,,
30.05,0.00039,-50.64,,,,,,,
30.06,0.00036,-53.46,,,,,,,
30.08,0.00033,-56.35,,,,,,,
30.09,0.00031,-59.14,,,,,,,
30.11,0.00028,-62.0,,,,,,,
30.12,0.00026,-64.84,,,,,,,
30.13,0.00023,-67.69,,,,,,,
30.15,0.0002,-70.57,,,,,,,
30.16,0.00018,-73.31,,,,,,,
30.18,0.00015,-76.02,,,,,,,
30.19,0.00013,-78.48,,,,,,,
30.21,0.0001,-81.01,,,,,,,
30.22,7e-05,-83.63,,,,,,,
30.24,5e-05,-86.1,,,,,,,
30.25,2e-05,-88.66,,,,,,,
30.27,-0.0,-91.07,,,,,,,
30.29,-3e-05,-93.3,,,,,,,
30.31,-6e-05,-95.44,,,,,,,
30.33,-8e-05,-97.6,,,,,,,
30.35,-0.00011,-99.57,,,,,,,
30.37,-0.00013,-101.58,,,,,,,
30.39,-0.00016,-103.55,,,,,,,
30.41,-0.00018,-105.34,,,,,,,
30.44,-0.00021,-107.19,,,,,,,
30.46,-0.00024,-108.89,,,,,,,
30.49,-0.00026,-110.38,,,,,,,
30.51,-0.00029,-111.92,,,,,,,
30.54,-0.00031,-113.56,,,,,,,
30.57,-0.00034,-115.25,,,,,,,
30.6,-0.00036,-117.21,,,,,,,
30.62,-0.00039,-118.79,,,,,,,
30.65,-0.00042,-120.34,,,,,,,
30.67,-0.00044,-121.78,,,,,,,
30.69,-0.00047,-123.07,,,,,,,
30.72,-0.00049,-124.45,,,,,,,
30.74,-0.00052,-125.84,,,,,,,
30.77,-0.00054,-127.21,,,,,,,
30.79,-0.00057,-128.49,,,,,,,
30.82,-0.00059,-129.85,,,,,,,
30.84,-0.00062,-131.14,,,,,,,
30.87,-0.00065,-132.45,,,,,,,
30.9,-0.00067,-133.77,,,,,,,
30.92,-0.0007,-135.02,,,,,,,
30.95,-0.00072,-136.28,,,,,,,
30.98,-0.00075,-137.61,,,,,,,
31.0,-0.00077,-138.93,,,,,,,
31.03,-0.0008,-140.16,,,,,,,
31.05,-0.00082,-141.52,,,,,,,
31.08,-0.00085,-142.84,,,,,,,
31.11,-0.00087,-144.11,,,,,,,
31.13,-0.0009,-145.35,,,,,,,
31.15,-0.00092,-146.48,,,,,,,
31.18,-0.00095,-147.57,,,,,,,
31.2,-0.00097,-148.65,,,,,,,
31.22,-0.001,-149.73,,,,,,,
31.25,-0.00103,-150.78,,,,,,,
31.27,-0.00105,-151.83,,,,,,,
31.3,-0.00108,-152.84,,,,,,,
31.33,-0.0011,-153.83,,,,,,,
31.35,-0.00113,-154.74,,,,,,,
31.38,-0.00115,-155.75,,,,,,,
31.41,-0.00118,-156.73,,,,,,,
31.43,-0.0012,-157.66,,,,,,,
31.46,-0.00123,-158.72,,,,,,,
31.48,-0.00125,-159.72,,,,,,,
31.51,-0.00128,-160.66,,,,,,,
31.54,-0.0013,-161.69,,,,,,,
31.56,-0.00133,-162.67,,,,,,,
31.59,-0.00136,-163.56,,,,,,,
31.61,-0.00138,-164.4,,,,,,,
31.63,-0.00141,-165.17,,,,,,,
31.66,-0.00143,-166.0,,,,,,,
31.68,-0.00146,-166.69,,,,,,,
31.7,-0.00148,-167.29,,,,,,,
31.72,-0.00151,-167.91,,,,,,,
31.75,-0.00154,-168.47,,,,,,,
31.77,-0.00156,-169.0,,,,,,,
31.8,-0.00159,-169.45,,,,,,,
31.82,-0.00161,-169.85,,,,,,,
31.84,-0.00164,-170.18,,,,,,,
31.87,-0.00166,-170.43,,,,,,,
31.89,-0.00169,-170.6,,,,,,,
31.92,-0.00171,-170.75,,,,,,,
31.94,-0.00174,-170.91,,,,,,,
31.97,-0.00177,-171.01,,,,,,,
32.0,-0.00179,-171.19,,,,,,,
32.02,-0.00182,-171.36,,,,,,,
32.05,-0.00184,-171.53,,,,,,,
32.08,-0.00187,-171.33,,,,,,,
32.11,-0.00189,-169.93,,,,,,,
32.22,-0.00187,-152.31,,,,,,,
32.25,-0.00184,-146.14,,,,,,,
32.27,-0.00182,-140.65,,,,,,,
32.29,-0.00179,-135.83,,,,,,,
32.31,-0.00176,-131.13,,,,,,,
32.33,-0.00174,-126.43,,,,,,,
32.34,-0.00171,-121.8,,,,,,,
32.36,-0.00169,-117.76,,,,,,,
32.38,-0.00166,-113.58,,,,,,,
32.4,-0.00163,-109.66,,,,,,,
32.42,-0.00161,-105.82,,,,,,,
32.44,-0.00158,-101.92,,,,,,,
32.46,-0.00156,-97.92,,,,,,,
32.48,-0.00153,-94.17,,,,,,,
32.51,-0.00151,-90.51,,,,,,,
32.53,-0.00148,-86.6,,,,,,,
32.56,-0.00146,-82.48,,,,,,,
32.59,-0.00143,-78.75,,,,,,,
32.62,-0.00141,-74.96,,,,,,,
32.64,-0.00138,-71.35,,,,,,,
32.67,-0.00136,-67.85,,,,,,,
32.69,-0.00133,-64.38,,,,,,,
32.72,-0.0013,-60.74,,,,,,,
32.75,-0.00128,-57.06,,,,,,,
32.78,-0.00125,-53.27,,,,,,,
32.81,-0.00123,-49.4,,,,,,,
32.83,-0.0012,-46.19,,,,,,,
32.86,-0.00118,-43.33,,,,,,,
32.88,-0.00115,-40.08,,,,,,,
32.91,-0.00113,-36.57,,,,,,,
32.93,-0.0011,-33.49,,,,,,,
32.96,-0.00108,-30.3,,,,,,,
32.99,-0.00105,-27.15,,,,,,,
33.01,-0.00102,-24.09,,,,,,,
33.04,-0.001,-21.33,,,,,,,
33.06,-0.00097,-18.73,,,,,,,
33.08,-0.00095,-16.21,,,,,,,
33.11,-0.00092,-13.44,,,,,,,
33.14,-0.0009,-10.37,,,,,,,
33.17,-0.00087,-7.25,,,,,,,
33.2,-0.00085,-4.18,,,,,,,
33.23,-0.00082,-0.34,,,,,,,
33.27,-0.00079,3.29,,,,,,,
33.3,-0.00077,6.91,,,,,,,
33.33,-0.00074,10.96,,,,,,,
33.36,-0.00072,14.47,,,,,,,
33.39,-0.00069,17.31,,,,,,,
33.41,-0.00067,20.27,,,,,,,
33.43,-0.00064,22.83,,,,,,,
33.45,-0.00062,25.29,,,,,,,
33.48,-0.00059,27.21,,,,,,,
33.52,-0.00057,28.83,,,,,,,
33.58,-0.00054,31.32,,,,,,,
33.62,-0.00051,34.48,,,,,,,
33.65,-0.00049,38.05,,,,,,,
33.67,-0.00046,41.47,,,,,,,
33.69,-0.00044,44.23,,,,,,,
33.71,-0.00041,47.22,,,,,,,
33.73,-0.00039,49.9,,,,,,,
33.76,-0.00036,52.66,,,,,,,
33.79,-0.00034,55.73,,,,,,,
33.83,-0.00031,58.63,,,,,,,
33.85,-0.00029,61.08,,,,,,,
33.88,-0.00026,63.45,,,,,,,
33.91,-0.00023,65.88,,,,,,,
65.97,-0.00023,71.76,,,,,,,
66.0,-0.0002,73.52,,,,,,,
66.03,-0.00017,75.85,,,,,,,
66.06,-0.00015,78.28,,,,,,,
66.09,-0.00012,80.51,,,,,,,
66.12,-0.0001,82.56,,,,,,,
66.14,-7e-05,84.72,,,,,,,
66.17,-5e-05,87.1,,,,,,,
66.2,-2e-05,89.81,,,,,,,
66.22,0.0,92.53,,,,,,,
66.23,3e-05,95.09,,,,,,,
66.25,6e-05,97.64,,,,,,,
66.27,8e-05,100.05,,,,,,,
66.28,0.00011,102.59,,,,,,,
66.3,0.00013,105.12,,,,,,,
66.32,0.00016,107.69,,,,,,,
66.33,0.00019,110.21,,,,,,,
66.35,0.00021,112.45,,,,,,,
66.37,0.00024,114.65,,,,,,,
66.39,0.00026,116.76,,,,,,,
66.4,0.00029,118.86,,,,,,,
66.42,0.00032,120.71,,,,,,,
66.44,0.00034,122.41,,,,,,,
66.46,0.00037,124.1,,,,,,,
66.48,0.00039,125.67,,,,,,,
66.5,0.00042,127.03,,,,,,,
66.52,0.00044,128.31,,,,,,,
66.54,0.00047,129.59,,,,,,,
66.57,0.0005,130.76,,,,,,,
66.59,0.00052,131.87,,,,,,,
66.61,0.00055,132.76,,,,,,,
66.63,0.00057,133.69,,,,,,,
66.66,0.0006,134.61,,,,,,,
66.68,0.00062,135.48,,,,,,,
66.71,0.00065,136.49,,,,,,,
66.74,0.00067,137.51,,,,,,,
66.77,0.0007,138.6,,,,,,,
66.8,0.00072,139.79,,,,,,,
66.83,0.00075,140.92,,,,,,,
66.85,0.00077,142.16,,,,,,,
66.88,0.0008,143.42,,,,,,,
66.9,0.00083,144.56,,,,,,,
66.93,0.00085,145.67,,,,,,,
66.95,0.00088,146.74,,,,,,,
66.97,0.0009,147.68,,,,,,,
66.99,0.00093,148.53,,,,,,,
67.02,0.00095,149.51,,,,,,,
67.05,0.00098,150.44,,,,,,,
67.07,0.00101,151.34,,,,,,,
67.1,0.00103,152.19,,,,,,,
67.13,0.00106,153.07,,,,,,,
67.15,0.00108,154.0,,,,,,,
67.17,0.00111,154.79,,,,,,,
67.2,0.00113,155.62,,,,,,,
67.22,0.00116,156.34,,,,,,,
67.25,0.00118,157.01,,,,,,,
67.27,0.00121,157.67,,,,,,,
67.29,0.00124,158.2,,,,,,,
67.31,0.00126,158.69,,,,,,,
67.34,0.00129,159.18,,,,,,,
67.36,0.00131,159.57,,,,,,,
67.39,0.00134,159.95,,,,,,,
67.41,0.00136,160.25,,,,,,,
67.44,0.00139,160.61,,,,,,,
67.46,0.00141,160.89,,,,,,,
67.48,0.00144,161.2,,,,,,,
67.51,0.00146,161.43,,,,,,,
67.53,0.00149,161.55,,,,,,,
67.55,0.00152,161.65,,,,,,,
67.58,0.00154,161.75,,,,,,,
67.6,0.00157,161.86,,,,,,,
67.62,0.00159,161.87,,,,,,,
67.65,0.00162,161.81,,,,,,,
67.68,0.00164,161.69,,,,,,,
67.7,0.00167,161.56,,,,,,,
67.73,0.00169,161.42,,,,,,,
67.75,0.00172,161.34,,,,,,,
67.78,0.00174,161.2,,,,,,,
67.8,0.00177,161.08,,,,,,,
67.83,0.0018,160.96,,,,,,,
67.85,0.00182,160.84,,,,,,,
67.87,0.00185,160.65,,,,,,,
67.9,0.00187,160.42,,,,,,,
67.92,0.0019,160.21,,,,,,,
67.95,0.00192,159.98,,,,,,,
67.97,0.00195,159.79,,,,,,,
68.0,0.00197,159.53,,,,,,,
68.03,0.002,158.69,,,,,,,
68.07,0.00202,155.56,,,,,,,
68.14,0.002,143.74,,,,,,,
68.16,0.00197,138.51,,,,,,,
68.18,0.00195,133.83,,,,,,,
68.2,0.00192,129.55,,,,,,,
68.21,0.0019,125.86,,,,,,,
68.23,0.00187,121.99,,,,,,,
68.25,0.00184,118.25,,,,,,,
68.26,0.00182,114.5,,,,,,,
68.28,0.00179,110.64,,,,,,,
68.3,0.00177,106.93,,,,,,,
68.32,0.00174,103.33,,,,,,,
68.35,0.00172,99.44,,,,,,,
68.37,0.00169,95.28,,,,,,,
68.41,0.00167,90.81,,,,,,,
68.44,0.00164,86.63,,,,,,,
68.47,0.00162,82.18,,,,,,,
68.49,0.00159,78.31,,,,,,,
68.52,0.00156,74.57,,,,,,,
68.54,0.00154,71.27,,,,,,,
68.57,0.00151,68.01,,,,,,,
68.6,0.00149,64.14,,,,,,,
68.63,0.00146,59.86,,,,,,,
68.67,0.00144,55.24,,,,,,,
68.7,0.00141,50.68,,,,,,,
68.73,0.00139,45.74,,,,,,,
68.76,0.00136,41.67,,,,,,,
68.79,0.00134,37.89,,,,,,,
68.81,0.00131,34.46,,,,,,,
68.84,0.00129,30.64,,,,,,,
68.86,0.00126,27.35,,,,,,,
68.88,0.00123,24.1,,,,,,,
68.91,0.00121,20.86,,,,,,,
68.93,0.00118,17.53,,,,,,,
68.96,0.00116,14.64,,,,,,,
68.98,0.00113,11.76,,,,,,,
69.0,0.00111,8.86,,,,,,,
69.03,0.00108,5.74,,,,,,,
69.06,0.00106,2.8,,,,,,,
69.08,0.00103,0.18,,,,,,,
69.1,0.00101,-2.4,,,,,,,
69.13,0.00098,-5.02,,,,,,,
69.15,0.00095,-7.23,,,,,,,
69.17,0.00093,-9.49,,,,,,,
69.2,0.0009,-11.65,,,,,,,
69.23,0.00088,-13.87,,,,,,,
69.26,0.00085,-15.84,,,,,,,
69.32,0.00083,-15.9,,,,,,,
69.4,0.0008,-16.9,,,,,,,
69.44,0.00078,-18.7,,,,,,,
69.48,0.00075,-21.26,,,,,,,
69.51,0.00073,-23.63,,,,,,,
69.55,0.0007,-26.25,,,,,,,
69.58,0.00067,-28.87,,,,,,,
69.62,0.00065,-31.75,,,,,,,
69.64,0.00062,-34.22,,,,,,,
69.67,0.0006,-37.04,,,,,,,
69.69,0.00057,-39.88,,,,,,,
69.71,0.00055,-42.65,,,,,,,
69.73,0.00052,-45.78,,,,,,,
69.74,0.00049,-48.53,,,,,,,
69.76,0.00047,-51.5,,,,,,,
69.77,0.00044,-54.4,,,,,,,
69.79,0.00042,-56.95,,,,,,,
69.8,0.00039,-59.78,,,,,,,
69.82,0.00036,-62.48,,,,,,,
69.83,0.00035,-64.2,,,,,,,
69.83,0.00034,-65.0,,,,,,,
69.85,0.00031,-67.44,,,,,,,
69.86,0.00029,-69.81,,,,,,,
69.88,0.00026,-72.16,,,,,,,
69.89,0.00023,-74.45,,,,,,,
69.91,0.00021,-76.89,,,,,,,
69.93,0.00018,-79.05,,,,,,,
69.95,0.00016,-81.19,,,,,,,
69.96,0.00013,-83.29,,,,,,,
69.98,0.00011,-85.14,,,,,,,
70.0,8e-05,-86.95,,,,,,,
70.02,6e-05,-88.72,,,,,,,
70.04,3e-05,-90.67,,,,,,,
70.06,1e-05,-92.33,,,,,,,
70.09,-2e-05,-94.04,,,,,,,
70.11,-4e-05,-95.8,,,,,,,
70.14,-7e-05,-97.31,,,,,,,
70.16,-0.0001,-98.78,,,,,,,
70.18,-0.00012,-100.11,,,,,,,
70.2,-0.00015,-101.34,,,,,,,
70.23,-0.00017,-102.92,,,,,,,
70.26,-0.0002,-104.47,,,,,,,
70.29,-0.00022,-106.11,,,,,,,
70.32,-0.00025,-107.7,,,,,,,
70.35,-0.00027,-109.45,,,,,,,
70.38,-0.0003,-111.1,,,,,,,
70.4,-0.00032,-112.59,,,,,,,
70.43,-0.00035,-114.01,,,,,,,
70.45,-0.00038,-115.47,,,,,,,
70.47,-0.0004,-116.9,,,,,,,
70.5,-0.00043,-118.23,,,,,,,
70.52,-0.00045,-119.5,,,,,,,
70.54,-0.00048,-120.84,,,,,,,
70.57,-0.0005,-122.27,,,,,,,
70.59,-0.00053,-123.45,,,,,,,
70.62,-0.00055,-124.63,,,,,,,
70.64,-0.00058,-125.89,,,,,,,
70.67,-0.0006,-127.2,,,,,,,
70.7,-0.00063,-128.46,,,,,,,
70.73,-0.00065,-129.82,,,,,,,
70.76,-0.00068,-131.29,,,,,,,
70.79,-0.0007,-132.71,,,,,,,
70.81,-0.00073,-134.19,,,,,,,
70.84,-0.00075,-135.53,,,,,,,
70.86,-0.00078,-136.95,,,,,,,
70.89,-0.00081,-138.51,,,,,,,
70.91,-0.00083,-139.86,,,,,,,
70.94,-0.00086,-141.25,,,,,,,
70.96,-0.00088,-142.48,,,,,,,
70.98,-0.00091,-143.62,,,,,,,
71.01,-0.00093,-144.91,,,,,,,
71.04,-0.00096,-146.27,,,,,,,
71.07,-0.00099,-147.6,,,,,,,
71.09,-0.00101,-148.79,,,,,,,
71.12,-0.00104,-149.94,,,,,,,
71.14,-0.00106,-151.17,,,,,,,
71.17,-0.00109,-152.25,,,,,,,
71.19,-0.00111,-153.44,,,,,,,
71.22,-0.00114,-154.47,,,,,,,
71.24,-0.00116,-155.4,,,,,,,
71.26,-0.00119,-156.33,,,,,,,
71.28,-0.00121,-157.14,,,,,,,
71.31,-0.00124,-158.04,,,,,,,
71.33,-0.00127,-158.87,,,,,,,
71.36,-0.00129,-159.72,,,,,,,
71.39,-0.00132,-160.51,,,,,,,
71.41,-0.00134,-161.42,,,,,,,
71.44,-0.00137,-162.19,,,,,,,
71.46,-0.00139,-162.9,,,,,,,
71.48,-0.00142,-163.58,,,,,,,
71.51,-0.00144,-164.19,,,,,,,
71.53,-0.00147,-164.75,,,,,,,
71.56,-0.0015,-165.41,,,,,,,
71.58,-0.00152,-165.96,,,,,,,
71.61,-0.00155,-166.49,,,,,,,
71.63,-0.00157,-166.96,,,,,,,
71.66,-0.0016,-167.42,,,,,,,
71.68,-0.00162,-167.82,,,,,,,
71.71,-0.00165,-168.19,,,,,,,
71.73,-0.00167,-168.63,,,,,,,
71.75,-0.0017,-168.96,,,,,,,
71.78,-0.00173,-169.21,,,,,,,
71.8,-0.00175,-169.41,,,,,,,
71.83,-0.00178,-169.58,,,,,,,
71.85,-0.0018,-169.75,,,,,,,
71.88,-0.00183,-169.94,,,,,,,
71.91,-0.00185,-170.12,,,,,,,
71.93,-0.00188,-170.3,,,,,,,
71.95,-0.0019,-170.44,,,,,,,
71.97,-0.00193,-170.58,,,,,,,
71.99,-0.00195,-170.63,,,,,,,
72.02,-0.00198,-170.36,,,,,,,
72.05,-0.002,-169.02,,,,,,,
72.18,-0.00198,-146.9,,,,,,,
72.2,-0.00195,-141.42,,,,,,,
72.22,-0.00193,-135.95,,,,,,,
72.24,-0.0019,-131.42,,,,,,,
72.25,-0.00188,-126.81,,,,,,,
72.27,-0.00185,-122.91,,,,,,,
72.29,-0.00182,-118.75,,,,,,,
72.3,-0.0018,-114.39,,,,,,,
72.32,-0.00177,-109.9,,,,,,,
72.34,-0.00175,-105.71,,,,,,,
72.36,-0.00172,-101.66,,,,,,,
72.38,-0.0017,-97.75,,,,,,,
72.4,-0.00167,-93.74,,,,,,,
72.43,-0.00165,-89.39,,,,,,,
72.46,-0.00162,-85.37,,,,,,,
72.48,-0.00159,-81.41,,,,,,,
72.51,-0.00157,-77.6,,,,,,,
72.53,-0.00154,-73.87,,,,,,,
72.56,-0.00152,-70.08,,,,,,,
72.58,-0.00149,-66.57,,,,,,,
72.61,-0.00147,-63.03,,,,,,,
72.64,-0.00144,-59.28,,,,,,,
72.66,-0.00142,-55.87,,,,,,,
72.69,-0.00139,-52.19,,,,,,,
72.72,-0.00137,-48.35,,,,,,,
72.75,-0.00134,-44.57,,,,,,,
72.78,-0.00132,-40.69,,,,,,,
72.81,-0.00129,-37.2,,,,,,,
72.84,-0.00126,-33.26,,,,,,,
72.86,-0.00124,-29.64,,,,,,,
72.89,-0.00121,-26.29,,,,,,,
72.91,-0.00119,-23.06,,,,,,,
72.94,-0.00116,-19.63,,,,,,,
72.97,-0.00114,-15.96,,,,,,,
72.99,-0.00111,-12.69,,,,,,,
73.02,-0.00109,-9.15,,,,,,,
73.05,-0.00106,-5.7,,,,,,,
73.08,-0.00103,-2.5,,,,,,,
73.1,-0.00101,0.69,,,,,,,
73.13,-0.00098,3.98,,,,,,,
73.15,-0.00096,6.81,,,,,,,
73.18,-0.00093,9.91,,,,,,,
73.21,-0.00091,13.36,,,,,,,
73.24,-0.00088,16.54,,,,,,,
73.27,-0.00086,19.71,,,,,,,
73.29,-0.00083,22.68,,,,,,,
73.32,-0.0008,25.36,,,,,,,
73.35,-0.00078,27.58,,,,,,,
73.4,-0.00075,29.42,,,,,,,
73.46,-0.00073,32.78,,,,,,,
73.48,-0.0007,35.42,,,,,,,
73.51,-0.00068,38.19,,,,,,,
73.53,-0.00065,41.72,,,,,,,
73.55,-0.00063,44.35,,,,,,,
73.57,-0.0006,46.88,,,,,,,
73.59,-0.00058,49.36,,,,,,,
73.62,-0.00055,52.04,,,,,,,
73.64,-0.00052,54.42,,,,,,,
73.67,-0.0005,56.56,,,,,,,
73.69,-0.00047,58.56,,,,,,,
73.72,-0.00045,60.34,,,,,,,
73.75,-0.00042,62.05,,,,,,,
73.78,-0.0004,64.09,,,,,,,
73.81,-0.00037,65.88,,,,,,,
73.84,-0.00035,67.79,,,,,,,
73.87,-0.00032,69.56,,,,,,,
73.9,-0.00029,71.34,,,,,,,
73.93,-0.00027,73.17,,,,,,,
73.96,-0.00024,75.33,,,,,,,
146.06,-0.00023,70.35,,,,,,,
146.09,-0.0002,72.57,,,,,,,
146.12,-0.00018,74.62,,,,,,,
146.15,-0.00015,76.81,,,,,,,
146.18,-0.00013,79.12,,,,,,,
146.21,-0.0001,81.64,,,,,,,
146.24,-7e-05,83.93,,,,,,,
146.26,-5e-05,86.09,,,,,,,
146.28,-2e-05,88.52,,,,,,,
146.3,0.0,91.01,,,,,,,
146.32,3e-05,93.57,,,,,,,
146.34,5e-05,96.3,,,,,,,
146.36,8e-05,99.0,,,,,,,
146.38,0.00011,101.7,,,,,,,
146.39,0.00013,104.05,,,,,,,
146.41,0.00016,106.55,,,,,,,
146.42,0.00018,108.87,,,,,,,
146.44,0.00021,111.03,,,,,,,
146.46,0.00023,113.07,,,,,,,
146.47,0.00026,115.08,,,,,,,
146.49,0.00028,117.03,,,,,,,
146.51,0.00031,118.98,,,,,,,
146.53,0.00034,120.95,,,,,,,
146.55,0.00036,122.68,,,,,,,
146.57,0.00039,124.22,,,,,,,
146.59,0.00041,125.78,,,,,,,
146.61,0.00044,127.11,,,,,,,
146.63,0.00046,128.43,,,,,,,
146.65,0.00049,129.57,,,,,,,
146.67,0.00051,130.74,,,,,,,
146.7,0.00054,131.89,,,,,,,
146.72,0.00057,132.81,,,,,,,
146.74,0.00059,133.76,,,,,,,
146.76,0.00062,134.53,,,,,,,
146.79,0.00064,135.31,,,,,,,
146.81,0.00067,136.06,,,,,,,
146.84,0.00069,136.74,,,,,,,
146.87,0.00072,137.56,,,,,,,
146.89,0.00074,138.27,,,,,,,
146.92,0.00077,139.02,,,,,,,
146.95,0.00079,139.86,,,,,,,
146.97,0.00082,140.68,,,,,,,
147.0,0.00084,141.59,,,,,,,
147.03,0.00087,142.66,,,,,,,
147.06,0.0009,143.55,,,,,,,
147.08,0.00092,144.46,,,,,,,
147.11,0.00095,145.49,,,,,,,
147.13,0.00097,146.54,,,,,,,
147.16,0.001,147.57,,,,,,,
147.18,0.00102,148.42,,,,,,,
147.2,0.00105,149.24,,,,,,,
147.22,0.00107,150.08,,,,,,,
147.25,0.0011,150.96,,,,,,,
147.27,0.00113,151.73,,,,,,,
147.3,0.00115,152.39,,,,,,,
147.32,0.00118,153.09,,,,,,,
147.35,0.0012,153.8,,,,,,,
147.37,0.00123,154.34,,,,,,,
147.4,0.00125,154.84,,,,,,,
147.42,0.00128,155.3,,,,,,,
147.45,0.0013,155.89,,,,,,,
147.48,0.00133,156.44,,,,,,,
147.51,0.00136,157.0,,,,,,,
147.54,0.00138,157.76,,,,,,,
147.56,0.00141,158.4,,,,,,,
147.58,0.00143,158.93,,,,,,,
147.6,0.00146,159.57,,,,,,,
147.63,0.00148,160.29,,,,,,,
147.66,0.00151,160.93,,,,,,,
147.68,0.00153,161.49,,,,,,,
147.71,0.00156,162.13,,,,,,,
147.73,0.00158,162.63,,,,,,,
147.75,0.00161,163.15,,,,,,,
147.78,0.00163,163.62,,,,,,,
147.8,0.00166,163.97,,,,,,,
147.82,0.00168,164.27,,,,,,,
147.84,0.00171,164.55,,,,,,,
147.87,0.00174,164.83,,,,,,,
147.89,0.00176,164.9,,,,,,,
147.92,0.00179,164.95,,,,,,,
147.94,0.00181,164.86,,,,,,,
147.96,0.00184,164.8,,,,,,,
147.99,0.00186,164.69,,,,,,,
148.02,0.00189,164.56,,,,,,,
148.04,0.00192,164.44,,,,,,,
148.07,0.00194,164.29,,,,,,,
148.09,0.00197,164.1,,,,,,,
148.12,0.00199,163.27,,,,,,,
148.26,0.00197,142.51,,,,,,,
148.28,0.00194,137.01,,,,,,,
148.3,0.00192,132.42,,,,,,,
148.32,0.00189,127.83,,,,,,,
148.33,0.00186,123.65,,,,,,,
148.35,0.00184,119.28,,,,,,,
148.37,0.00181,115.2,,,,,,,
148.39,0.00179,111.15,,,,,,,
148.41,0.00176,107.38,,,,,,,
148.43,0.00174,103.74,,,,,,,
148.45,0.00171,99.94,,,,,,,
148.47,0.00169,96.41,,,,,,,
148.49,0.00166,92.85,,,,,,,
148.52,0.00164,88.88,,,,,,,
148.55,0.00161,84.82,,,,,,,
148.58,0.00158,80.9,,,,,,,
148.6,0.00156,77.63,,,,,,,
148.63,0.00153,74.01,,,,,,,
148.65,0.00151,70.69,,,,,,,
148.68,0.00148,67.81,,,,,,,
148.7,0.00146,64.92,,,,,,,
148.72,0.00143,61.96,,,,,,,
148.75,0.00141,58.82,,,,,,,
148.78,0.00138,55.87,,,,,,,
148.8,0.00136,53.16,,,,,,,
148.83,0.00133,49.98,,,,,,,
148.87,0.0013,46.33,,,,,,,
148.89,0.00128,43.3,,,,,,,
148.92,0.00125,40.16,,,,,,,
148.95,0.00123,37.3,,,,,,,
148.97,0.0012,34.37,,,,,,,
149.0,0.00118,31.14,,,,,,,
149.03,0.00115,28.19,,,,,,,
149.05,0.00113,25.3,,,,,,,
149.08,0.0011,22.06,,,,,,,
149.11,0.00108,18.89,,,,,,,
149.14,0.00105,15.5,,,,,,,
149.17,0.00102,12.53,,,,,,,
149.2,0.001,9.55,,,,,,,
149.23,0.00097,6.03,,,,,,,
149.26,0.00095,2.72,,,,,,,
149.29,0.00092,-0.52,,,,,,,
149.31,0.0009,-3.85,,,,,,,
149.34,0.00087,-6.84,,,,,,,
149.37,0.00085,-9.58,,,,,,,
149.39,0.00082,-12.23,,,,,,,
149.42,0.0008,-14.97,,,,,,,
149.46,0.00077,-17.38,,,,,,,
149.52,0.00075,-17.76,,,,,,,
149.6,0.00072,-19.6,,,,,,,
149.64,0.00069,-22.35,,,,,,,
149.67,0.00067,-24.69,,,,,,,
149.71,0.00064,-27.41,,,,,,,
149.75,0.00062,-30.71,,,,,,,
149.78,0.00059,-34.08,,,,,,,
149.82,0.00057,-37.89,,,,,,,
149.83,0.00055,-39.89,,,,,,,
149.84,0.00054,-41.33,,,,,,,
149.86,0.00052,-44.14,,,,,,,
149.87,0.00049,-47.06,,,,,,,
149.89,0.00046,-50.12,,,,,,,
149.9,0.00044,-52.79,,,,,,,
149.92,0.00041,-55.71,,,,,,,
149.93,0.00039,-58.37,,,,,,,
149.94,0.00036,-60.95,,,,,,,
149.96,0.00034,-63.5,,,,,,,
149.97,0.00031,-66.13,,,,,,,
149.99,0.00029,-68.7,,,,,,,
150.0,0.00026,-71.09,,,,,,,
150.02,0.00023,-73.78,,,,,,,
150.03,0.00021,-76.31,,,,,,,
150.05,0.00018,-78.93,,,,,,,
150.06,0.00016,-81.09,,,,,,,
150.08,0.00013,-83.4,,,,,,,
150.09,0.00011,-85.21,,,,,,,
150.11,8e-05,-87.12,,,,,,,
150.13,6e-05,-89.25,,,,,,,
150.14,3e-05,-90.99,,,,,,,
150.16,1e-05,-92.76,,,,,,,
150.18,-2e-05,-94.52,,,,,,,
150.2,-4e-05,-96.15,,,,,,,
150.22,-7e-05,-97.67,,,,,,,
150.24,-0.0001,-98.99,,,,,,,
150.27,-0.00012,-100.37,,,,,,,
150.29,-0.00015,-101.71,,,,,,,
150.32,-0.00017,-102.94,,,,,,,
150.34,-0.0002,-104.08,,,,,,,
150.37,-0.00022,-105.4,,,,,,,
150.4,-0.00025,-106.73,,,,,,,
150.43,-0.00027,-108.15,,,,,,,
150.45,-0.0003,-109.27,,,,,,,
150.48,-0.00032,-110.42,,,,,,,
150.5,-0.00035,-111.6,,,,,,,
150.53,-0.00038,-112.86,,,,,,,
150.56,-0.0004,-114.15,,,,,,,
150.59,-0.00043,-115.75,,,,,,,
150.63,-0.00045,-117.77,,,,,,,
150.66,-0.00048,-119.52,,,,,,,
150.68,-0.0005,-121.21,,,,,,,
150.71,-0.00053,-122.77,,,,,,,
150.73,-0.00055,-124.22,,,,,,,
150.75,-0.00058,-125.7,,,,,,,
150.77,-0.00061,-127.21,,,,,,,
150.8,-0.00063,-128.59,,,,,,,
150.82,-0.00066,-130.05,,,,,,,
150.84,-0.00068,-131.41,,,,,,,
150.87,-0.00071,-132.67,,,,,,,
150.89,-0.00073,-133.91,,,,,,,
150.92,-0.00076,-135.1,,,,,,,
150.94,-0.00078,-136.22,,,,,,,
150.97,-0.00081,-137.18,,,,,,,
150.99,-0.00084,-138.25,,,,,,,
151.01,-0.00086,-139.37,,,,,,,
151.04,-0.00089,-140.32,,,,,,,
151.06,-0.00091,-141.26,,,,,,,
151.09,-0.00094,-142.27,,,,,,,
151.12,-0.00096,-143.14,,,,,,,
151.14,-0.00099,-144.03,,,,,,,
151.17,-0.00101,-144.95,,,,,,,
151.19,-0.00104,-145.81,,,,,,,
151.22,-0.00106,-146.73,,,,,,,
151.25,-0.00109,-147.61,,,,,,,
151.27,-0.00112,-148.51,,,,,,,
151.3,-0.00114,-149.54,,,,,,,
151.33,-0.00117,-150.56,,,,,,,
151.35,-0.00119,-151.46,,,,,,,
151.38,-0.00122,-152.28,,,,,,,
151.4,-0.00124,-153.16,,,,,,,
151.42,-0.00127,-154.0,,,,,,,
151.45,-0.00129,-154.85,,,,,,,
151.47,-0.00132,-155.63,,,,,,,
151.5,-0.00135,-156.42,,,,,,,
151.52,-0.00137,-157.07,,,,,,,
151.55,-0.0014,-157.76,,,,,,,
151.57,-0.00142,-158.43,,,,,,,
151.59,-0.00145,-158.94,,,,,,,
151.62,-0.00148,-159.41,,,,,,,
151.64,-0.0015,-159.89,,,,,,,
151.67,-0.00153,-160.28,,,,,,,
151.69,-0.00155,-160.64,,,,,,,
151.72,-0.00158,-161.05,,,,,,,
151.75,-0.0016,-161.47,,,,,,,
151.77,-0.00163,-161.81,,,,,,,
151.8,-0.00166,-162.14,,,,,,,
151.83,-0.00168,-162.53,,,,,,,
151.86,-0.00171,-163.0,,,,,,,
151.89,-0.00173,-163.57,,,,,,,
151.92,-0.00176,-164.14,,,,,,,
151.94,-0.00178,-164.76,,,,,,,
151.97,-0.00181,-165.37,,,,,,,
151.99,-0.00183,-165.95,,,,,,,
152.01,-0.00186,-166.41,,,,,,,
152.03,-0.00189,-166.87,,,,,,,
152.06,-0.00191,-167.33,,,,,,,
152.08,-0.00194,-167.68,,,,,,,
152.1,-0.00196,-167.85,,,,,,,
152.12,-0.00199,-167.59,,,,,,,
152.15,-0.00201,-165.81,,,,,,,
152.26,-0.00199,-147.44,,,,,,,
152.28,-0.00196,-141.08,,,,,,,
152.3,-0.00194,-135.65,,,,,,,
152.32,-0.00191,-130.9,,,,,,,
152.34,-0.00189,-126.03,,,,,,,
152.35,-0.00186,-121.67,,,,,,,
152.37,-0.00184,-117.69,,,,,,,
152.39,-0.00181,-113.54,,,,,,,
152.4,-0.00178,-109.4,,,,,,,
152.42,-0.00176,-105.74,,,,,,,
152.44,-0.00173,-101.38,,,,,,,
152.46,-0.00171,-97.59,,,,,,,
152.48,-0.00168,-94.39,,,,,,,
152.5,-0.00166,-90.62,,,,,,,
152.52,-0.00163,-86.86,,,,,,,
152.55,-0.00161,-83.31,,,,,,,
152.57,-0.00158,-79.9,,,,,,,
152.6,-0.00155,-76.3,,,,,,,
152.62,-0.00153,-72.84,,,,,,,
152.65,-0.0015,-69.29,,,,,,,
152.67,-0.00148,-66.11,,,,,,,
152.7,-0.00145,-63.07,,,,,,,
152.73,-0.00143,-59.89,,,,,,,
152.75,-0.0014,-56.39,,,,,,,
152.79,-0.00138,-52.68,,,,,,,
152.82,-0.00135,-49.08,,,,,,,
152.85,-0.00133,-44.66,,,,,,,
152.88,-0.0013,-41.32,,,,,,,
152.9,-0.00127,-38.2,,,,,,,
152.93,-0.00125,-35.21,,,,,,,
152.95,-0.00122,-31.77,,,,,,,
152.98,-0.0012,-28.4,,,,,,,
153.01,-0.00117,-24.95,,,,,,,
153.03,-0.00115,-22.09,,,,,,,
153.06,-0.00112,-19.19,,,,,,,
153.08,-0.0011,-16.28,,,,,,,
153.11,-0.00107,-13.14,,,,,,,
153.13,-0.00105,-10.08,,,,,,,
153.16,-0.00102,-6.97,,,,,,,
153.19,-0.001,-3.78,,,,,,,
153.22,-0.00097,-1.02,,,,,,,
153.24,-0.00094,1.86,,,,,,,
153.26,-0.00092,4.31,,,,,,,
153.29,-0.00089,6.76,,,,,,,
153.31,-0.00087,9.33,,,,,,,
153.34,-0.00084,11.85,,,,,,,
153.36,-0.00082,14.39,,,,,,,
153.39,-0.00079,16.55,,,,,,,
153.41,-0.00077,18.56,,,,,,,
153.44,-0.00074,20.89,,,,,,,
153.47,-0.00072,23.44,,,,,,,
153.53,-0.00069,25.84,,,,,,,
153.59,-0.00067,28.77,,,,,,,
153.63,-0.00064,31.98,,,,,,,
153.66,-0.00062,35.03,,,,,,,
153.69,-0.00059,38.68,,,,,,,
153.71,-0.00056,41.82,,,,,,,
153.73,-0.00054,44.87,,,,,,,
153.75,-0.00051,47.69,,,,,,,
153.78,-0.00049,50.5,,,,,,,
153.8,-0.00046,53.22,,,,,,,
153.83,-0.00044,55.66,,,,,,,
153.85,-0.00041,57.88,,,,,,,
153.87,-0.00039,59.83,,,,,,,
153.9,-0.00036,61.81,,,,,,,
153.93,-0.00034,63.86,,,,,,,
153.96,-0.00031,66.0,,,,,,,
153.99,-0.00028,67.91,,,,,,,
154.02,-0.00026,69.64,,,,,,,
154.05,-0.00023,71.67,,,,,,,
386.34,-0.00022,74.68,,,,,,,
386.37,-0.00019,77.18,,,,,,,
386.41,-0.00017,79.74,,,,,,,
386.44,-0.00014,82.22,,,,,,,
386.46,-0.00011,84.68,,,,,,,
386.49,-9e-05,87.1,,,,,,,
386.51,-6e-05,89.58,,,,,,,
386.53,-4e-05,92.1,,,,,,,
386.55,-1e-05,94.63,,,,,,,
386.57,1e-05,97.15,,,,,,,
386.58,4e-05,99.78,,,,,,,
386.6,6e-05,102.15,,,,,,,
386.61,9e-05,104.71,,,,,,,
386.63,0.00012,107.06,,,,,,,
386.65,0.00014,109.4,,,,,,,
386.66,0.00017,111.6,,,,,,,
386.68,0.00019,113.49,,,,,,,
386.69,0.00022,115.54,,,,,,,
386.71,0.00024,117.3,,,,,,,
386.72,0.00027,119.02,,,,,,,
386.74,0.00029,120.76,,,,,,,
386.76,0.00032,122.36,,,,,,,
386.78,0.00035,123.95,,,,,,,
386.8,0.00037,125.26,,,,,,,
386.83,0.0004,126.52,,,,,,,
386.85,0.00042,127.86,,,,,,,
386.88,0.00045,129.09,,,,,,,
386.9,0.00047,130.22,,,,,,,
386.92,0.0005,131.42,,,,,,,
386.95,0.00053,132.5,,,,,,,
386.97,0.00055,133.63,,,,,,,
387.0,0.00058,134.67,,,,,,,
387.03,0.0006,135.73,,,,,,,
387.05,0.00063,136.79,,,,,,,
387.08,0.00065,137.88,,,,,,,
387.1,0.00068,138.82,,,,,,,
387.13,0.0007,139.84,,,,,,,
387.15,0.00073,140.72,,,,,,,
387.17,0.00075,141.73,,,,,,,
387.2,0.00078,142.92,,,,,,,
387.23,0.00081,143.92,,,,,,,
387.25,0.00083,144.8,,,,,,,
387.27,0.00086,145.68,,,,,,,
387.3,0.00088,146.51,,,,,,,
387.32,0.00091,147.37,,,,,,,
387.35,0.00093,148.16,,,,,,,
387.37,0.00096,148.93,,,,,,,
387.4,0.00098,149.83,,,,,,,
387.43,0.00101,150.72,,,,,,,
387.46,0.00104,151.61,,,,,,,
387.48,0.00106,152.47,,,,,,,
387.51,0.00109,153.28,,,,,,,
387.53,0.00111,154.23,,,,,,,
387.56,0.00114,155.05,,,,,,,
387.58,0.00116,155.92,,,,,,,
387.61,0.00119,156.72,,,,,,,
387.63,0.00121,157.46,,,,,,,
387.66,0.00124,158.28,,,,,,,
387.68,0.00126,158.95,,,,,,,
387.7,0.00129,159.6,,,,,,,
387.72,0.00132,160.26,,,,,,,
387.75,0.00134,160.77,,,,,,,
387.77,0.00137,161.25,,,,,,,
387.79,0.00139,161.71,,,,,,,
387.82,0.00142,162.08,,,,,,,
387.84,0.00144,162.32,,,,,,,
387.87,0.00147,162.53,,,,,,,
387.89,0.00149,162.77,,,,,,,
387.92,0.00152,162.93,,,,,,,
387.94,0.00155,163.06,,,,,,,
387.96,0.00157,163.19,,,,,,,
387.99,0.0016,163.23,,,,,,,
388.01,0.00162,163.24,,,,,,,
388.04,0.00165,163.18,,,,,,,
388.06,0.00167,163.1,,,,,,,
388.09,0.0017,163.04,,,,,,,
388.12,0.00172,162.98,,,,,,,
388.15,0.00175,162.93,,,,,,,
388.17,0.00178,162.95,,,,,,,
388.2,0.0018,163.07,,,,,,,
388.23,0.00183,163.2,,,,,,,
388.25,0.00185,163.33,,,,,,,
388.28,0.00188,163.55,,,,,,,
388.3,0.0019,163.64,,,,,,,
388.33,0.00193,163.82,,,,,,,
388.35,0.00195,163.94,,,,,,,
388.38,0.00198,163.49,,,,,,,
388.42,0.00201,161.28,,,,,,,
388.51,0.00198,146.76,,,,,,,
388.53,0.00195,141.4,,,,,,,
388.55,0.00193,136.25,,,,,,,
388.57,0.0019,131.78,,,,,,,
388.59,0.00188,127.29,,,,,,,
388.61,0.00185,123.25,,,,,,,
388.62,0.00183,119.23,,,,,,,
388.64,0.0018,115.04,,,,,,,
388.66,0.00178,111.12,,,,,,,
388.68,0.00175,106.96,,,,,,,
388.7,0.00173,103.28,,,,,,,
388.73,0.0017,99.57,,,,,,,
388.75,0.00167,95.89,,,,,,,
388.77,0.00165,92.34,,,,,,,
388.8,0.00162,88.45,,,,,,,
388.83,0.0016,84.69,,,,,,,
388.85,0.00157,81.46,,,,,,,
388.88,0.00155,78.15,,,,,,,
388.9,0.00152,74.85,,,,,,,
388.93,0.0015,71.5,,,,,,,
388.95,0.00147,68.52,,,,,,,
388.98,0.00145,65.39,,,,,,,
389.01,0.00142,61.66,,,,,,,
389.04,0.00139,58.31,,,,,,,
389.07,0.00137,54.35,,,,,,,
389.1,0.00134,50.74,,,,,,,
389.13,0.00132,46.91,,,,,,,
389.16,0.00129,43.74,,,,,,,
389.18,0.00127,40.46,,,,,,,
389.21,0.00124,37.55,,,,,,,
389.23,0.00122,34.28,,,,,,,
389.26,0.00119,30.55,,,,,,,
389.29,0.00117,27.44,,,,,,,
389.32,0.00114,24.41,,,,,,,
389.34,0.00111,21.21,,,,,,,
389.37,0.00109,17.58,,,,,,,
389.4,0.00106,14.19,,,,,,,
389.43,0.00104,10.77,,,,,,,
389.46,0.00101,7.54,,,,,,,
389.48,0.00099,4.45,,,,,,,
389.51,0.00096,1.43,,,,,,,
389.54,0.00094,-1.77,,,,,,,
389.57,0.00091,-4.99,,,,,,,
389.6,0.00089,-8.62,,,,,,,
389.63,0.00086,-11.98,,,,,,,
389.66,0.00083,-14.84,,,,,,,
389.69,0.00081,-17.32,,,,,,,
389.74,0.00078,-18.69,,,,,,,
389.83,0.00076,-20.36,,,,,,,
389.87,0.00073,-22.73,,,,,,,
389.91,0.00071,-25.55,,,,,,,
389.94,0.00068,-27.92,,,,,,,
389.97,0.00066,-30.16,,,,,,,
390.0,0.00063,-32.87,,,,,,,
390.03,0.00061,-35.41,,,,,,,
390.05,0.00058,-38.24,,,,,,,
390.08,0.00055,-41.33,,,,,,,
390.1,0.00053,-44.35,,,,,,,
390.12,0.0005,-47.63,,,,,,,
390.13,0.00048,-50.88,,,,,,,
390.15,0.00045,-53.47,,,,,,,
390.16,0.00043,-56.1,,,,,,,
390.18,0.0004,-58.72,,,,,,,
390.19,0.00037,-61.67,,,,,,,
390.21,0.00035,-64.57,,,,,,,
390.22,0.00032,-67.2,,,,,,,
390.24,0.00029,-69.92,,,,,,,
390.26,0.00027,-72.65,,,,,,,
390.27,0.00024,-75.24,,,,,,,
390.29,0.00022,-77.56,,,,,,,
390.3,0.00019,-79.8,,,,,,,
390.32,0.00017,-82.13,,,,,,,
390.33,0.00014,-84.43,,,,,,,
390.35,0.00011,-86.57,,,,,,,
390.37,9e-05,-88.62,,,,,,,
390.38,6e-05,-90.6,,,,,,,
390.4,4e-05,-92.45,,,,,,,
390.42,1e-05,-94.29,,,,,,,
390.44,-1e-05,-95.94,,,,,,,
390.46,-4e-05,-97.51,,,,,,,
390.48,-6e-05,-98.92,,,,,,,
390.5,-9e-05,-100.42,,,,,,,
390.53,-0.00011,-101.9,,,,,,,
390.55,-0.00014,-103.15,,,,,,,
390.58,-0.00017,-104.45,,,,,,,
390.6,-0.00019,-105.76,,,,,,,
390.63,-0.00022,-107.05,,,,,,,
390.65,-0.00024,-108.23,,,,,,,
390.68,-0.00027,-109.36,,,,,,,
390.71,-0.00029,-110.47,,,,,,,
390.74,-0.00032,-111.67,,,,,,,
390.76,-0.00034,-112.93,,,,,,,
390.79,-0.00037,-114.12,,,,,,,
390.81,-0.00039,-115.17,,,,,,,
390.84,-0.00042,-116.7,,,,,,,
390.88,-0.00044,-118.25,,,,,,,
390.9,-0.00047,-119.58,,,,,,,
390.93,-0.0005,-120.81,,,,,,,
390.95,-0.00052,-122.1,,,,,,,
390.98,-0.00055,-123.57,,,,,,,
391.0,-0.00057,-124.98,,,,,,,
391.03,-0.0006,-126.26,,,,,,,
391.05,-0.00063,-127.5,,,,,,,
391.08,-0.00065,-128.84,,,,,,,
391.11,-0.00068,-130.42,,,,,,,
391.14,-0.0007,-131.78,,,,,,,
391.16,-0.00073,-133.06,,,,,,,
391.19,-0.00075,-134.38,,,,,,,
391.21,-0.00078,-135.72,,,,,,,
391.24,-0.0008,-137.03,,,,,,,
391.26,-0.00083,-138.3,,,,,,,
391.29,-0.00086,-139.49,,,,,,,
391.31,-0.00088,-140.63,,,,,,,
391.33,-0.00091,-141.82,,,,,,,
391.36,-0.00093,-142.92,,,,,,,
391.38,-0.00096,-143.99,,,,,,,
391.41,-0.00098,-144.99,,,,,,,
391.43,-0.00101,-145.9,,,,,,,
391.45,-0.00104,-146.8,,,,,,,
391.48,-0.00106,-147.64,,,,,,,
391.51,-0.00109,-148.58,,,,,,,
391.53,-0.00111,-149.37,,,,,,,
391.55,-0.00114,-150.08,,,,,,,
391.58,-0.00116,-150.75,,,,,,,
391.6,-0.00119,-151.54,,,,,,,
391.63,-0.00121,-152.19,,,,,,,
391.65,-0.00124,-152.85,,,,,,,
391.68,-0.00126,-153.47,,,,,,,
391.71,-0.00129,-154.1,,,,,,,
391.73,-0.00132,-154.69,,,,,,,
391.76,-0.00134,-155.42,,,,,,,
391.78,-0.00137,-156.06,,,,,,,
391.81,-0.00139,-156.73,,,,,,,
391.84,-0.00142,-157.5,,,,,,,
391.87,-0.00144,-158.23,,,,,,,
391.89,-0.00147,-158.98,,,,,,,
391.92,-0.00149,-159.8,,,,,,,
391.94,-0.00152,-160.54,,,,,,,
391.96,-0.00154,-161.29,,,,,,,
391.99,-0.00157,-162.04,,,,,,,
392.01,-0.0016,-162.66,,,,,,,
392.04,-0.00162,-163.21,,,,,,,
392.06,-0.00165,-163.77,,,,,,,
392.08,-0.00167,-164.3,,,,,,,
392.1,-0.0017,-164.68,,,,,,,
392.13,-0.00172,-165.06,,,,,,,
392.15,-0.00175,-165.45,,,,,,,
392.17,-0.00177,-165.74,,,,,,,
392.2,-0.0018,-166.01,,,,,,,
392.22,-0.00182,-166.19,,,,,,,
392.25,-0.00185,-166.4,,,,,,,
392.28,-0.00188,-166.47,,,,,,,
392.3,-0.0019,-166.53,,,,,,,
392.33,-0.00193,-166.57,,,,,,,
392.35,-0.00195,-166.58,,,,,,,
392.38,-0.00198,-166.18,,,,,,,
392.42,-0.002,-164.4,,,,,,,
392.53,-0.00198,-146.03,,,,,,,
392.55,-0.00195,-139.87,,,,,,,
392.57,-0.00193,-134.69,,,,,,,
392.59,-0.0019,-129.85,,,,,,,
392.61,-0.00188,-125.21,,,,,,,
392.63,-0.00185,-120.8,,,,,,,
392.64,-0.00182,-116.75,,,,,,,
392.66,-0.0018,-112.51,,,,,,,
392.68,-0.00177,-108.8,,,,,,,
392.69,-0.00175,-105.23,,,,,,,
392.71,-0.00172,-101.27,,,,,,,
392.73,-0.0017,-97.39,,,,,,,
392.75,-0.00167,-93.61,,,,,,,
392.78,-0.00164,-89.77,,,,,,,
392.8,-0.00162,-86.18,,,,,,,
392.82,-0.00159,-82.82,,,,,,,
392.85,-0.00157,-79.31,,,,,,,
392.87,-0.00154,-75.93,,,,,,,
392.9,-0.00152,-72.54,,,,,,,
392.93,-0.00149,-68.83,,,,,,,
392.96,-0.00147,-65.28,,,,,,,
392.98,-0.00144,-62.04,,,,,,,
393.01,-0.00142,-58.87,,,,,,,
393.03,-0.00139,-55.8,,,,,,,
393.06,-0.00137,-52.77,,,,,,,
393.08,-0.00134,-49.87,,,,,,,
393.11,-0.00132,-46.57,,,,,,,
393.14,-0.00129,-43.38,,,,,,,
393.17,-0.00126,-40.43,,,,,,,
393.19,-0.00124,-37.26,,,,,,,
393.22,-0.00121,-34.17,,,,,,,
393.25,-0.00119,-30.83,,,,,,,
393.28,-0.00116,-27.68,,,,,,,
393.31,-0.00114,-24.34,,,,,,,
393.33,-0.00111,-21.26,,,,,,,
393.36,-0.00109,-18.09,,,,,,,
393.39,-0.00106,-14.93,,,,,,,
393.42,-0.00103,-11.74,,,,,,,
393.45,-0.00101,-8.48,,,,,,,
393.47,-0.00098,-5.43,,,,,,,
393.5,-0.00096,-2.25,,,,,,,
393.53,-0.00093,0.8,,,,,,,
393.55,-0.00091,3.83,,,,,,,
393.58,-0.00088,7.07,,,,,,,
393.61,-0.00086,9.98,,,,,,,
393.63,-0.00083,12.9,,,,,,,
393.66,-0.00081,15.81,,,,,,,
393.69,-0.00078,18.46,,,,,,,
393.71,-0.00075,21.41,,,,,,,
393.74,-0.00073,24.0,,,,,,,
393.78,-0.0007,26.27,,,,,,,
393.83,-0.00068,28.53,,,,,,,
393.87,-0.00065,30.9,,,,,,,
393.91,-0.00063,33.41,,,,,,,
393.94,-0.0006,35.84,,,,,,,
393.98,-0.00058,39.18,,,,,,,
394.0,-0.00055,42.27,,,,,,,
394.01,-0.00053,44.96,,,,,,,
394.03,-0.0005,47.82,,,,,,,
394.05,-0.00048,50.43,,,,,,,
394.08,-0.00045,52.94,,,,,,,
394.1,-0.00042,55.48,,,,,,,
394.13,-0.0004,57.88,,,,,,,
394.15,-0.00037,60.08,,,,,,,
394.18,-0.00035,62.24,,,,,,,
394.21,-0.00032,64.35,,,,,,,
394.24,-0.0003,66.22,,,,,,,
394.27,-0.00027,68.19,,,,,,,
394.31,-0.00025,70.29,,,,,,,
786.78,-0.00022,75.96,,,,,,,
786.81,-0.00019,77.62,,,,,,,
786.83,-0.00017,79.68,,,,,,,
786.86,-0.00014,81.54,,,,,,,
786.89,-0.00012,83.64,,,,,,,
786.91,-9e-05,85.46,,,,,,,
786.94,-6e-05,87.81,,,,,,,
786.96,-4e-05,90.03,,,,,,,
786.97,-1e-05,92.32,,,,,,,
786.99,1e-05,94.71,,,,,,,
787.01,4e-05,97.14,,,,,,,
787.03,6e-05,99.8,,,,,,,
787.04,9e-05,102.07,,,,,,,
787.06,0.00012,104.36,,,,,,,
787.08,0.00014,106.53,,,,,,,
787.09,0.00017,108.53,,,,,,,
787.11,0.00019,110.69,,,,,,,
787.13,0.00022,112.43,,,,,,,
787.14,0.00024,114.07,,,,,,,
787.16,0.00027,115.8,,,,,,,
787.18,0.0003,117.63,,,,,,,
787.21,0.00032,119.22,,,,,,,
787.23,0.00035,120.72,,,,,,,
787.25,0.00037,121.99,,,,,,,
787.27,0.0004,123.36,,,,,,,
787.29,0.00042,124.45,,,,,,,
787.31,0.00045,125.48,,,,,,,
787.33,0.00048,126.5,,,,,,,
787.36,0.0005,127.51,,,,,,,
787.38,0.00053,128.44,,,,,,,
787.41,0.00055,129.35,,,,,,,
787.44,0.00058,130.2,,,,,,,
787.46,0.0006,131.16,,,,,,,
787.49,0.00063,132.15,,,,,,,
787.52,0.00066,133.22,,,,,,,
787.54,0.00068,134.15,,,,,,,
787.57,0.00071,135.29,,,,,,,
787.6,0.00073,136.45,,,,,,,
787.63,0.00076,137.54,,,,,,,
787.65,0.00078,138.71,,,,,,,
787.68,0.00081,139.87,,,,,,,
787.7,0.00083,140.97,,,,,,,
787.73,0.00086,142.23,,,,,,,
787.75,0.00089,143.37,,,,,,,
787.78,0.00091,144.37,,,,,,,
787.8,0.00094,145.34,,,,,,,
787.82,0.00096,146.41,,,,,,,
787.85,0.00099,147.34,,,,,,,
787.87,0.00101,148.16,,,,,,,
787.9,0.00104,149.05,,,,,,,
787.92,0.00106,149.85,,,,,,,
787.95,0.00109,150.65,,,,,,,
787.97,0.00111,151.41,,,,,,,
788.0,0.00114,152.25,,,,,,,
788.02,0.00116,153.09,,,,,,,
788.05,0.00119,153.98,,,,,,,
788.07,0.00122,154.71,,,,,,,
788.1,0.00124,155.44,,,,,,,
788.12,0.00127,156.21,,,,,,,
788.15,0.00129,156.92,,,,,,,
788.17,0.00132,157.58,,,,,,,
788.2,0.00134,158.28,,,,,,,
788.23,0.00137,158.99,,,,,,,
788.25,0.00139,159.61,,,,,,,
788.28,0.00142,160.2,,,,,,,
788.3,0.00144,160.83,,,,,,,
788.33,0.00147,161.52,,,,,,,
788.36,0.0015,162.16,,,,,,,
788.38,0.00152,162.67,,,,,,,
788.4,0.00155,163.24,,,,,,,
788.42,0.00157,163.74,,,,,,,
788.45,0.0016,164.2,,,,,,,
788.47,0.00162,164.63,,,,,,,
788.49,0.00165,165.06,,,,,,,
788.51,0.00167,165.35,,,,,,,
788.54,0.0017,165.54,,,,,,,
788.56,0.00173,165.73,,,,,,,
788.59,0.00175,165.81,,,,,,,
788.61,0.00178,165.86,,,,,,,
788.64,0.0018,165.83,,,,,,,
788.66,0.00183,165.87,,,,,,,
788.69,0.00185,165.85,,,,,,,
788.72,0.00188,165.76,,,,,,,
788.75,0.0019,165.75,,,,,,,
788.77,0.00193,165.84,,,,,,,
788.79,0.00196,165.88,,,,,,,
788.82,0.00198,165.29,,,,,,,
788.86,0.00201,162.81,,,,,,,
788.96,0.00198,145.89,,,,,,,
788.98,0.00196,140.39,,,,,,,
789.0,0.00193,135.54,,,,,,,
789.02,0.0019,130.87,,,,,,,
789.04,0.00188,126.35,,,,,,,
789.05,0.00185,122.43,,,,,,,
789.07,0.00183,118.31,,,,,,,
789.09,0.0018,114.48,,,,,,,
789.11,0.00178,110.84,,,,,,,
789.12,0.00175,107.29,,,,,,,
789.14,0.00173,104.07,,,,,,,
789.16,0.0017,100.32,,,,,,,
789.19,0.00168,96.46,,,,,,,
789.21,0.00165,92.8,,,,,,,
789.24,0.00163,89.07,,,,,,,
789.26,0.0016,85.68,,,,,,,
789.29,0.00157,82.5,,,,,,,
789.31,0.00155,79.48,,,,,,,
789.33,0.00152,76.41,,,,,,,
789.36,0.0015,73.32,,,,,,,
789.39,0.00147,70.14,,,,,,,
789.42,0.00145,66.83,,,,,,,
789.45,0.00142,63.21,,,,,,,
789.47,0.0014,59.96,,,,,,,
789.5,0.00137,56.58,,,,,,,
789.54,0.00134,53.04,,,,,,,
789.56,0.00132,49.65,,,,,,,
789.59,0.00129,46.46,,,,,,,
789.62,0.00127,42.97,,,,,,,
789.65,0.00124,39.43,,,,,,,
789.68,0.00122,36.16,,,,,,,
789.7,0.00119,32.96,,,,,,,
789.73,0.00117,29.64,,,,,,,
789.76,0.00114,26.25,,,,,,,
789.79,0.00112,22.89,,,,,,,
789.81,0.00109,19.6,,,,,,,
789.83,0.00108,17.66,,,,,,,
789.84,0.00107,16.04,,,,,,,
789.88,0.00104,12.2,,,,,,,
789.91,0.00101,8.56,,,,,,,
789.93,0.00099,5.03,,,,,,,
789.96,0.00096,1.26,,,,,,,
789.99,0.00094,-2.24,,,,,,,
790.02,0.00091,-5.67,,,,,,,
790.05,0.00089,-8.95,,,,,,,
790.07,0.00086,-12.04,,,,,,,
790.09,0.00084,-14.75,,,,,,,
790.12,0.00081,-17.53,,,,,,,
790.16,0.00079,-19.02,,,,,,,
790.25,0.00076,-19.34,,,,,,,
790.3,0.00073,-21.45,,,,,,,
790.34,0.00071,-24.19,,,,,,,
790.38,0.00068,-26.9,,,,,,,
790.41,0.00066,-29.54,,,,,,,
790.44,0.00063,-32.04,,,,,,,
790.48,0.00061,-35.47,,,,,,,
790.5,0.00058,-38.68,,,,,,,
790.52,0.00056,-41.69,,,,,,,
790.54,0.00053,-44.48,,,,,,,
790.56,0.0005,-47.75,,,,,,,
790.58,0.00048,-50.71,,,,,,,
790.59,0.00045,-53.43,,,,,,,
790.6,0.00043,-56.16,,,,,,,
790.62,0.0004,-58.81,,,,,,,
790.63,0.00038,-61.59,,,,,,,
790.65,0.00035,-63.98,,,,,,,
790.66,0.00032,-66.59,,,,,,,
790.68,0.0003,-69.14,,,,,,,
790.69,0.00027,-71.67,,,,,,,
790.71,0.00025,-74.2,,,,,,,
790.72,0.00022,-76.67,,,,,,,
790.74,0.00019,-79.01,,,,,,,
790.75,0.00017,-81.13,,,,,,,
790.77,0.00014,-83.31,,,,,,,
790.79,0.00012,-85.3,,,,,,,
790.8,9e-05,-87.2,,,,,,,
790.82,7e-05,-89.26,,,,,,,
790.84,4e-05,-90.98,,,,,,,
790.86,2e-05,-92.64,,,,,,,
790.88,-1e-05,-94.48,,,,,,,
790.9,-4e-05,-96.08,,,,,,,
790.92,-6e-05,-97.48,,,,,,,
790.94,-9e-05,-98.98,,,,,,,
790.96,-0.00011,-100.3,,,,,,,
790.99,-0.00014,-101.58,,,,,,,
791.01,-0.00016,-102.81,,,,,,,
791.04,-0.00019,-104.0,,,,,,,
791.07,-0.00021,-105.3,,,,,,,
791.09,-0.00024,-106.45,,,,,,,
791.12,-0.00027,-107.53,,,,,,,
791.14,-0.00029,-108.74,,,,,,,
791.17,-0.00032,-109.79,,,,,,,
791.2,-0.00034,-110.93,,,,,,,
791.22,-0.00037,-112.04,,,,,,,
791.25,-0.00039,-113.13,,,,,,,
791.28,-0.00042,-114.51,,,,,,,
791.31,-0.00044,-116.04,,,,,,,
791.33,-0.00047,-117.31,,,,,,,
791.36,-0.0005,-118.65,,,,,,,
791.39,-0.00052,-119.96,,,,,,,
791.41,-0.00055,-121.3,,,,,,,
791.44,-0.00057,-122.92,,,,,,,
791.47,-0.0006,-124.41,,,,,,,
791.5,-0.00062,-125.87,,,,,,,
791.52,-0.00065,-127.34,,,,,,,
791.55,-0.00067,-128.82,,,,,,,
791.57,-0.0007,-130.14,,,,,,,
791.59,-0.00073,-131.44,,,,,,,
791.62,-0.00075,-132.84,,,,,,,
791.64,-0.00078,-134.16,,,,,,,
791.67,-0.0008,-135.42,,,,,,,
791.7,-0.00083,-136.72,,,,,,,
791.72,-0.00085,-138.02,,,,,,,
791.75,-0.00088,-139.35,,,,,,,
791.77,-0.0009,-140.64,,,,,,,
791.8,-0.00093,-141.88,,,,,,,
791.82,-0.00095,-143.13,,,,,,,
791.85,-0.00098,-144.28,,,,,,,
791.88,-0.00101,-145.59,,,,,,,
791.9,-0.00103,-146.74,,,,,,,
791.93,-0.00106,-147.96,,,,,,,
791.95,-0.00108,-149.21,,,,,,,
791.98,-0.00111,-150.48,,,,,,,
792.01,-0.00113,-151.75,,,,,,,
792.04,-0.00116,-153.02,,,,,,,
792.06,-0.00118,-154.32,,,,,,,
792.09,-0.00121,-155.52,,,,,,,
792.11,-0.00123,-156.76,,,,,,,
792.14,-0.00126,-157.9,,,,,,,
792.16,-0.00129,-159.01,,,,,,,
792.18,-0.00131,-159.95,,,,,,,
792.2,-0.00134,-160.94,,,,,,,
792.22,-0.00136,-161.76,,,,,,,
792.25,-0.00139,-162.56,,,,,,,
792.27,-0.00141,-163.29,,,,,,,
792.29,-0.00144,-163.95,,,,,,,
792.32,-0.00146,-164.55,,,,,,,
792.34,-0.00149,-165.12,,,,,,,
792.37,-0.00152,-165.63,,,,,,,
792.39,-0.00154,-166.09,,,,,,,
792.42,-0.00157,-166.59,,,,,,,
792.45,-0.00159,-167.03,,,,,,,
792.47,-0.00162,-167.49,,,,,,,
792.5,-0.00164,-167.89,,,,,,,
792.53,-0.00167,-168.32,,,,,,,
792.55,-0.00169,-168.69,,,,,,,
792.58,-0.00172,-169.11,,,,,,,
792.6,-0.00174,-169.45,,,,,,,
792.63,-0.00177,-169.74,,,,,,,
792.65,-0.00179,-170.04,,,,,,,
792.67,-0.00182,-170.29,,,,,,,
792.69,-0.00185,-170.57,,,,,,,
792.72,-0.00187,-170.73,,,,,,,
792.74,-0.0019,-170.93,,,,,,,
792.76,-0.00192,-171.04,,,,,,,
792.79,-0.00195,-171.14,,,,,,,
792.81,-0.00197,-170.92,,,,,,,
792.84,-0.002,-170.02,,,,,,,
792.88,-0.00202,-166.82,,,,,,,
792.98,-0.002,-148.93,,,,,,,
793.0,-0.00197,-142.37,,,,,,,
793.02,-0.00195,-136.56,,,,,,,
793.03,-0.00192,-131.93,,,,,,,
793.05,-0.00189,-127.4,,,,,,,
793.07,-0.00187,-122.91,,,,,,,
793.08,-0.00184,-118.39,,,,,,,
793.1,-0.00182,-113.67,,,,,,,
793.12,-0.00179,-109.06,,,,,,,
793.14,-0.00176,-104.84,,,,,,,
793.15,-0.00174,-100.8,,,,,,,
793.17,-0.00171,-96.71,,,,,,,
793.19,-0.00169,-92.6,,,,,,,
793.22,-0.00166,-88.26,,,,,,,
793.24,-0.00164,-84.04,,,,,,,
793.26,-0.00161,-80.09,,,,,,,
793.29,-0.00159,-76.71,,,,,,,
793.31,-0.00156,-73.33,,,,,,,
793.33,-0.00153,-69.59,,,,,,,
793.36,-0.00151,-65.9,,,,,,,
793.39,-0.00148,-62.24,,,,,,,
793.42,-0.00146,-58.38,,,,,,,
793.44,-0.00143,-54.95,,,,,,,
793.47,-0.00141,-51.63,,,,,,,
793.5,-0.00138,-48.02,,,,,,,
793.52,-0.00136,-44.77,,,,,,,
793.54,-0.00133,-41.94,,,,,,,
793.57,-0.0013,-39.04,,,,,,,
793.59,-0.00128,-35.89,,,,,,,
793.62,-0.00125,-32.79,,,,,,,
793.65,-0.00123,-29.25,,,,,,,
793.68,-0.0012,-25.42,,,,,,,
793.71,-0.00118,-22.21,,,,,,,
793.74,-0.00115,-18.84,,,,,,,
793.77,-0.00113,-15.36,,,,,,,
793.8,-0.0011,-12.02,,,,,,,
793.82,-0.00108,-8.8,,,,,,,
793.85,-0.00105,-5.45,,,,,,,
793.88,-0.00102,-1.76,,,,,,,
793.91,-0.001,1.86,,,,,,,
793.94,-0.00097,5.14,,,,,,,
793.97,-0.00095,8.61,,,,,,,
794.0,-0.00092,12.04,,,,,,,
794.02,-0.0009,15.45,,,,,,,
794.05,-0.00087,18.64,,,,,,,
794.08,-0.00085,21.93,,,,,,,
794.11,-0.00082,25.22,,,,,,,
794.15,-0.00079,28.18,,,,,,,
794.19,-0.00077,30.48,,,,,,,
794.23,-0.00074,32.8,,,,,,,
794.26,-0.00072,35.1,,,,,,,
794.3,-0.00069,37.32,,,,,,,
794.34,-0.00067,40.41,,,,,,,
794.36,-0.00064,43.76,,,,,,,
794.38,-0.00062,46.77,,,,,,,
794.4,-0.00059,49.53,,,,,,,
794.42,-0.00056,52.45,,,,,,,
794.44,-0.00054,55.15,,,,,,,
794.46,-0.00051,57.69,,,,,,,
794.48,-0.00049,60.13,,,,,,,
794.51,-0.00046,62.33,,,,,,,
794.53,-0.00044,64.43,,,,,,,
794.56,-0.00041,66.36,,,,,,,
794.59,-0.00039,68.18,,,,,,,
794.62,-0.00036,69.72,,,,,,,
794.64,-0.00034,71.22,,,,,,,
794.68,-0.00031,73.0,,,,,,,
794.71,-0.00029,74.57,,,,,,,
794.74,-0.00026,76.5,,,,,,,
1587.65,-0.00024,78.54,,,,,,,
1587.67,-0.00021,80.48,,,,,,,
1587.7,-0.00019,82.29,,,,,,,
1587.72,-0.00016,84.14,,,,,,,
1587.75,-0.00014,86.19,,,,,,,
1587.78,-0.00011,88.02,,,,,,,
1587.8,-8e-05,90.35,,,,,,,
1587.82,-6e-05,92.74,,,,,,,
1587.83,-3e-05,95.06,,,,,,,
1587.85,-1e-05,97.41,,,,,,,
1587.87,2e-05,99.77,,,,,,,
1587.89,4e-05,102.22,,,,,,,
1587.9,7e-05,104.72,,,,,,,
1587.92,0.0001,107.04,,,,,,,
1587.94,0.00012,109.27,,,,,,,
1587.96,0.00015,111.32,,,,,,,
1587.97,0.00017,113.2,,,,,,,
1587.99,0.0002,115.12,,,,,,,
1588.01,0.00023,116.92,,,,,,,
1588.03,0.00025,118.64,,,,,,,
1588.04,0.00028,120.11,,,,,,,
1588.06,0.0003,121.77,,,,,,,
1588.08,0.00033,123.2,,,,,,,
1588.11,0.00035,124.57,,,,,,,
1588.13,0.00038,125.85,,,,,,,
1588.15,0.00041,127.12,,,,,,,
1588.18,0.00043,128.24,,,,,,,
1588.2,0.00046,129.32,,,,,,,
1588.23,0.00048,130.3,,,,,,,
1588.25,0.00051,131.44,,,,,,,
1588.27,0.00053,132.35,,,,,,,
1588.3,0.00056,133.31,,,,,,,
1588.32,0.00058,134.26,,,,,,,
1588.35,0.00061,135.23,,,,,,,
1588.37,0.00064,136.17,,,,,,,
1588.4,0.00066,137.12,,,,,,,
1588.43,0.00069,137.99,,,,,,,
1588.46,0.00071,139.1,,,,,,,
1588.49,0.00074,140.19,,,,,,,
1588.51,0.00076,141.27,,,,,,,
1588.54,0.00079,142.39,,,,,,,
1588.57,0.00081,143.52,,,,,,,
1588.59,0.00084,144.6,,,,,,,
1588.61,0.00086,145.61,,,,,,,
1588.64,0.00089,146.63,,,,,,,
1588.66,0.00091,147.73,,,,,,,
1588.69,0.00094,148.63,,,,,,,
1588.71,0.00097,149.53,,,,,,,
1588.73,0.00099,150.52,,,,,,,
1588.76,0.00102,151.45,,,,,,,
1588.78,0.00104,152.21,,,,,,,
1588.8,0.00107,152.9,,,,,,,
1588.83,0.00109,153.79,,,,,,,
1588.86,0.00112,154.46,,,,,,,
1588.88,0.00114,155.13,,,,,,,
1588.91,0.00117,155.81,,,,,,,
1588.93,0.0012,156.4,,,,,,,
1588.96,0.00122,157.04,,,,,,,
1588.98,0.00125,157.64,,,,,,,
1589.01,0.00127,158.21,,,,,,,
1589.03,0.0013,158.75,,,,,,,
1589.06,0.00132,159.33,,,,,,,
1589.08,0.00135,159.83,,,,,,,
1589.1,0.00137,160.22,,,,,,,
1589.13,0.0014,160.74,,,,,,,
1589.16,0.00143,161.2,,,,,,,
1589.18,0.00145,161.62,,,,,,,
1589.21,0.00148,162.08,,,,,,,
1589.23,0.0015,162.49,,,,,,,
1589.26,0.00153,162.94,,,,,,,
1589.29,0.00155,163.33,,,,,,,
1589.31,0.00158,163.66,,,,,,,
1589.33,0.0016,164.11,,,,,,,
1589.36,0.00163,164.51,,,,,,,
1589.38,0.00166,164.96,,,,,,,
1589.41,0.00168,165.37,,,,,,,
1589.43,0.00171,165.71,,,,,,,
1589.46,0.00173,165.92,,,,,,,
1589.48,0.00176,166.17,,,,,,,
1589.5,0.00178,166.31,,,,,,,
1589.52,0.00181,166.43,,,,,,,
1589.55,0.00183,166.47,,,,,,,
1589.57,0.00186,166.47,,,,,,,
1589.59,0.00189,166.34,,,,,,,
1589.62,0.00191,166.2,,,,,,,
1589.64,0.00194,166.06,,,,,,,
1589.67,0.00196,165.79,,,,,,,
1589.69,0.00199,165.07,,,,,,,
1589.72,0.00201,163.39,,,,,,,
1589.83,0.002,144.62,,,,,,,
1589.84,0.00199,141.43,,,,,,,
1589.86,0.00196,135.91,,,,,,,
1589.88,0.00193,131.12,,,,,,,
1589.9,0.00191,126.54,,,,,,,
1589.92,0.00188,122.34,,,,,,,
1589.93,0.00186,118.02,,,,,,,
1589.95,0.00183,113.87,,,,,,,
1589.97,0.00181,110.2,,,,,,,
1589.99,0.00178,106.44,,,,,,,
1590.01,0.00176,102.19,,,,,,,
1590.03,0.00173,97.72,,,,,,,
1590.05,0.0017,93.77,,,,,,,
1590.08,0.00168,90.39,,,,,,,
1590.1,0.00165,87.0,,,,,,,
1590.12,0.00163,83.56,,,,,,,
1590.15,0.0016,79.58,,,,,,,
1590.17,0.00158,76.1,,,,,,,
1590.2,0.00155,72.54,,,,,,,
1590.23,0.00152,68.81,,,,,,,
1590.26,0.0015,64.85,,,,,,,
1590.29,0.00147,61.08,,,,,,,
1590.32,0.00145,57.38,,,,,,,
1590.34,0.00142,53.85,,,,,,,
1590.37,0.0014,50.01,,,,,,,
1590.4,0.00137,46.2,,,,,,,
1590.43,0.00134,43.07,,,,,,,
1590.45,0.00132,40.12,,,,,,,
1590.48,0.00129,36.85,,,,,,,
1590.5,0.00127,33.68,,,,,,,
1590.53,0.00124,30.76,,,,,,,
1590.55,0.00122,27.44,,,,,,,
1590.58,0.00119,24.13,,,,,,,
1590.61,0.00117,21.07,,,,,,,
1590.64,0.00114,17.92,,,,,,,
1590.67,0.00112,14.94,,,,,,,
1590.69,0.00109,12.11,,,,,,,
1590.72,0.00106,8.99,,,,,,,
1590.75,0.00104,5.81,,,,,,,
1590.77,0.00101,2.81,,,,,,,
1590.8,0.00099,0.19,,,,,,,
1590.83,0.00096,-2.81,,,,,,,
1590.86,0.00094,-6.06,,,,,,,
1590.88,0.00091,-8.95,,,,,,,
1590.92,0.00089,-12.13,,,,,,,
1590.95,0.00086,-15.37,,,,,,,
1590.98,0.00084,-17.45,,,,,,,
1591.09,0.00081,-18.88,,,,,,,
1591.14,0.00079,-21.39,,,,,,,
1591.18,0.00076,-24.23,,,,,,,
1591.22,0.00073,-27.55,,,,,,,
1591.25,0.00071,-30.38,,,,,,,
1591.28,0.00068,-32.96,,,,,,,
1591.31,0.00066,-35.72,,,,,,,
1591.33,0.00063,-38.82,,,,,,,
1591.36,0.00061,-41.66,,,,,,,
1591.38,0.00058,-44.77,,,,,,,
1591.4,0.00055,-48.23,,,,,,,
1591.41,0.00053,-51.33,,,,,,,
1591.43,0.0005,-54.02,,,,,,,
1591.44,0.00048,-56.72,,,,,,,
1591.46,0.00045,-59.41,,,,,,,
1591.47,0.00043,-62.2,,,,,,,
1591.49,0.0004,-64.79,,,,,,,
1591.5,0.00037,-67.38,,,,,,,
1591.52,0.00035,-69.94,,,,,,,
1591.53,0.00032,-72.5,,,,,,,
1591.55,0.0003,-74.94,,,,,,,
1591.56,0.00027,-77.47,,,,,,,
1591.58,0.00024,-79.89,,,,,,,
1591.59,0.00022,-82.18,,,,,,,
1591.61,0.00019,-84.44,,,,,,,
1591.63,0.00017,-86.6,,,,,,,
1591.64,0.00014,-88.51,,,,,,,
1591.66,0.00012,-90.43,,,,,,,
1591.67,9e-05,-92.15,,,,,,,
1591.69,7e-05,-94.02,,,,,,,
1591.71,4e-05,-95.65,,,,,,,
1591.73,2e-05,-97.26,,,,,,,
1591.75,-1e-05,-98.81,,,,,,,
1591.78,-4e-05,-100.35,,,,,,,
1591.8,-6e-05,-101.99,,,,,,,
1591.83,-9e-05,-103.52,,,,,,,
1591.85,-0.00011,-105.05,,,,,,,
1591.88,-0.00014,-106.31,,,,,,,
1591.91,-0.00016,-107.78,,,,,,,
1591.93,-0.00019,-109.21,,,,,,,
1591.96,-0.00021,-110.67,,,,,,,
1591.99,-0.00024,-112.05,,,,,,,
1592.01,-0.00026,-113.57,,,,,,,
1592.04,-0.00029,-115.06,,,,,,,
1592.07,-0.00032,-116.72,,,,,,,
1592.1,-0.00034,-118.21,,,,,,,
1592.12,-0.00037,-119.61,,,,,,,
1592.14,-0.00039,-121.03,,,,,,,
1592.17,-0.00042,-122.51,,,,,,,
1592.2,-0.00044,-124.06,,,,,,,
1592.22,-0.00047,-125.59,,,,,,,
1592.25,-0.00049,-127.23,,,,,,,
1592.28,-0.00052,-128.85,,,,,,,
1592.3,-0.00054,-130.38,,,,,,,
1592.33,-0.00057,-131.72,,,,,,,
1592.35,-0.0006,-133.04,,,,,,,
1592.38,-0.00062,-134.41,,,,,,,
1592.4,-0.00065,-135.74,,,,,,,
1592.42,-0.00067,-137.04,,,,,,,
1592.45,-0.0007,-138.4,,,,,,,
1592.48,-0.00072,-139.6,,,,,,,
1592.5,-0.00075,-140.76,,,,,,,
1592.53,-0.00078,-141.97,,,,,,,
1592.55,-0.0008,-143.06,,,,,,,
1592.58,-0.00083,-144.16,,,,,,,
1592.6,-0.00085,-145.24,,,,,,,
1592.63,-0.00088,-146.36,,,,,,,
1592.65,-0.0009,-147.39,,,,,,,
1592.68,-0.00093,-148.44,,,,,,,
1592.7,-0.00095,-149.45,,,,,,,
1592.73,-0.00098,-150.52,,,,,,,
1592.75,-0.001,-151.49,,,,,,,
1592.78,-0.00103,-152.43,,,,,,,
1592.8,-0.00106,-153.3,,,,,,,
1592.83,-0.00108,-154.19,,,,,,,
1592.85,-0.00111,-155.13,,,,,,,
1592.88,-0.00113,-156.13,,,,,,,
1592.9,-0.00116,-156.97,,,,,,,
1592.93,-0.00118,-157.78,,,,,,,
1592.95,-0.00121,-158.52,,,,,,,
1592.98,-0.00123,-159.35,,,,,,,
1593.0,-0.00126,-160.06,,,,,,,
1593.03,-0.00128,-160.9,,,,,,,
1593.05,-0.00131,-161.62,,,,,,,
1593.08,-0.00133,-162.33,,,,,,,
1593.1,-0.00136,-163.01,,,,,,,
1593.13,-0.00139,-163.65,,,,,,,
1593.15,-0.00141,-164.14,,,,,,,
1593.17,-0.00144,-164.58,,,,,,,
1593.19,-0.00146,-165.02,,,,,,,
1593.21,-0.00149,-165.4,,,,,,,
1593.24,-0.00151,-165.71,,,,,,,
1593.26,-0.00154,-165.94,,,,,,,
1593.28,-0.00157,-166.11,,,,,,,
1593.31,-0.00159,-166.15,,,,,,,
1593.34,-0.00162,-166.17,,,,,,,
1593.37,-0.00164,-166.17,,,,,,,
1593.4,-0.00167,-166.23,,,,,,,
1593.42,-0.00169,-166.34,,,,,,,
1593.45,-0.00172,-166.51,,,,,,,
1593.47,-0.00174,-166.65,,,,,,,
1593.5,-0.00177,-166.8,,,,,,,
1593.52,-0.0018,-166.96,,,,,,,
1593.54,-0.00182,-167.03,,,,,,,
1593.57,-0.00185,-167.05,,,,,,,
1593.59,-0.00187,-167.09,,,,,,,
1593.62,-0.0019,-167.19,,,,,,,
1593.64,-0.00192,-167.23,,,,,,,
1593.67,-0.00195,-167.21,,,,,,,
1593.7,-0.00197,-166.91,,,,,,,
1593.73,-0.002,-165.55,,,,,,,
1593.86,-0.00197,-144.58,,,,,,,
1593.88,-0.00195,-139.59,,,,,,,
1593.9,-0.00192,-134.91,,,,,,,
1593.92,-0.00189,-130.38,,,,,,,
1593.93,-0.00187,-126.07,,,,,,,
1593.95,-0.00184,-121.73,,,,,,,
1593.97,-0.00182,-117.55,,,,,,,
1593.99,-0.00179,-113.03,,,,,,,
1594.01,-0.00177,-108.88,,,,,,,
1594.03,-0.00174,-104.64,,,,,,,
1594.05,-0.00172,-100.47,,,,,,,
1594.07,-0.00169,-96.21,,,,,,,
1594.1,-0.00166,-91.96,,,,,,,
1594.13,-0.00164,-87.37,,,,,,,
1594.15,-0.00161,-82.96,,,,,,,
1594.17,-0.00159,-79.57,,,,,,,
1594.2,-0.00156,-76.28,,,,,,,
1594.22,-0.00154,-72.1,,,,,,,
1594.25,-0.00151,-68.44,,,,,,,
1594.28,-0.00149,-64.9,,,,,,,
1594.3,-0.00146,-61.26,,,,,,,
1594.33,-0.00143,-57.76,,,,,,,
1594.35,-0.00141,-54.43,,,,,,,
1594.38,-0.00138,-50.98,,,,,,,
1594.4,-0.00136,-47.64,,,,,,,
1594.43,-0.00133,-43.94,,,,,,,
1594.46,-0.00131,-40.52,,,,,,,
1594.49,-0.00128,-37.08,,,,,,,
1594.52,-0.00126,-33.78,,,,,,,
1594.54,-0.00123,-30.26,,,,,,,
1594.57,-0.00121,-26.75,,,,,,,
1594.6,-0.00118,-23.64,,,,,,,
1594.62,-0.00116,-20.54,,,,,,,
1594.65,-0.00113,-17.33,,,,,,,
1594.67,-0.0011,-14.06,,,,,,,
1594.7,-0.00108,-10.55,,,,,,,
1594.73,-0.00105,-7.31,,,,,,,
1594.76,-0.00103,-4.4,,,,,,,
1594.78,-0.001,-1.35,,,,,,,
1594.81,-0.00098,1.71,,,,,,,
1594.83,-0.00095,4.62,,,,,,,
1594.86,-0.00093,7.22,,,,,,,
1594.88,-0.0009,10.09,,,,,,,
1594.91,-0.00088,13.34,,,,,,,
1594.94,-0.00085,16.41,,,,,,,
1594.97,-0.00082,19.6,,,,,,,
1595.0,-0.0008,22.61,,,,,,,
1595.03,-0.00077,24.97,,,,,,,
1595.06,-0.00075,26.84,,,,,,,
1595.11,-0.00072,28.85,,,,,,,
1595.15,-0.0007,31.18,,,,,,,
1595.18,-0.00067,33.16,,,,,,,
1595.23,-0.00065,35.53,,,,,,,
1595.26,-0.00062,38.56,,,,,,,
1595.28,-0.00059,41.94,,,,,,,
1595.3,-0.00057,45.06,,,,,,,
1595.33,-0.00054,48.02,,,,,,,
1595.35,-0.00052,50.84,,,,,,,
1595.37,-0.00049,53.54,,,,,,,
1595.39,-0.00046,56.16,,,,,,,
1595.42,-0.00044,58.66,,,,,,,
1595.44,-0.00041,60.96,,,,,,,
1595.47,-0.00039,63.32,,,,,,,
1595.51,-0.00036,65.67,,,,,,,
1595.54,-0.00034,67.94,,,,,,,
1595.57,-0.00031,70.11,,,,,,,
1595.6,-0.00029,72.29,,,,,,,
1595.63,-0.00026,74.54,,,,,,,
3990.3,-0.00022,73.33,,,,,,,
3990.33,-0.00019,75.36,,,,,,,
3990.36,-0.00016,77.77,,,,,,,
3990.4,-0.00014,80.66,,,,,,,
3990.43,-0.00011,83.29,,,,,,,
3990.46,-9e-05,85.9,,,,,,,
3990.48,-6e-05,88.83,,,,,,,
3990.5,-3e-05,91.55,,,,,,,
3990.51,-1e-05,94.27,,,,,,,
3990.53,2e-05,96.92,,,,,,,
3990.55,4e-05,99.69,,,,,,,
3990.56,7e-05,102.17,,,,,,,
3990.58,9e-05,104.56,,,,,,,
3990.59,0.00012,107.04,,,,,,,
3990.61,0.00014,109.39,,,,,,,
3990.63,0.00017,111.57,,,,,,,
3990.64,0.0002,113.68,,,,,,,
3990.66,0.00022,115.63,,,,,,,
3990.68,0.00025,117.6,,,,,,,
3990.7,0.00027,119.5,,,,,,,
3990.71,0.0003,121.28,,,,,,,
3990.73,0.00033,122.86,,,,,,,
3990.75,0.00035,124.39,,,,,,,
3990.77,0.00038,125.79,,,,,,,
3990.8,0.0004,127.13,,,,,,,
3990.82,0.00043,128.41,,,,,,,
3990.84,0.00045,129.56,,,,,,,
3990.86,0.00048,130.66,,,,,,,
3990.89,0.00051,131.92,,,,,,,
3990.92,0.00053,132.91,,,,,,,
3990.94,0.00056,133.83,,,,,,,
3990.97,0.00058,134.85,,,,,,,
3991.0,0.00061,135.82,,,,,,,
3991.02,0.00063,136.89,,,,,,,
3991.05,0.00066,137.99,,,,,,,
3991.08,0.00068,139.06,,,,,,,
3991.1,0.00071,140.13,,,,,,,
3991.13,0.00073,141.21,,,,,,,
3991.15,0.00076,142.4,,,,,,,
3991.18,0.00079,143.63,,,,,,,
3991.2,0.00081,144.6,,,,,,,
3991.23,0.00084,145.65,,,,,,,
3991.25,0.00086,146.69,,,,,,,
3991.27,0.00089,147.64,,,,,,,
3991.3,0.00091,148.74,,,,,,,
3991.33,0.00094,149.74,,,,,,,
3991.35,0.00096,150.77,,,,,,,
3991.38,0.00099,151.7,,,,,,,
3991.4,0.00101,152.61,,,,,,,
3991.42,0.00104,153.47,,,,,,,
3991.45,0.00107,154.32,,,,,,,
3991.48,0.00109,155.16,,,,,,,
3991.5,0.00112,155.85,,,,,,,
3991.52,0.00114,156.56,,,,,,,
3991.54,0.00117,157.16,,,,,,,
3991.57,0.00119,157.71,,,,,,,
3991.59,0.00122,158.25,,,,,,,
3991.61,0.00124,158.79,,,,,,,
3991.64,0.00127,159.14,,,,,,,
3991.66,0.0013,159.49,,,,,,,
3991.69,0.00132,159.79,,,,,,,
3991.71,0.00135,160.07,,,,,,,
3991.73,0.00137,160.33,,,,,,,
3991.76,0.0014,160.56,,,,,,,
3991.79,0.00142,160.8,,,,,,,
3991.81,0.00145,160.98,,,,,,,
3991.84,0.00147,161.23,,,,,,,
3991.87,0.0015,161.46,,,,,,,
3991.89,0.00153,161.77,,,,,,,
3991.92,0.00155,162.08,,,,,,,
3991.94,0.00158,162.36,,,,,,,
3991.97,0.0016,162.65,,,,,,,
3991.99,0.00163,162.95,,,,,,,
3992.02,0.00165,163.24,,,,,,,
3992.04,0.00168,163.54,,,,,,,
3992.06,0.0017,163.72,,,,,,,
3992.09,0.00173,163.88,,,,,,,
3992.11,0.00176,163.9,,,,,,,
3992.14,0.00178,164.03,,,,,,,
3992.17,0.00181,164.12,,,,,,,
3992.19,0.00183,164.17,,,,,,,
3992.22,0.00186,164.31,,,,,,,
3992.25,0.00188,164.42,,,,,,,
3992.27,0.00191,164.55,,,,,,,
3992.29,0.00193,164.71,,,,,,,
3992.32,0.00196,164.61,,,,,,,
3992.35,0.00198,163.81,,,,,,,
3992.39,0.00201,160.2,,,,,,,
3992.45,0.00198,149.8,,,,,,,
3992.48,0.00196,143.69,,,,,,,
3992.51,0.00193,138.24,,,,,,,
3992.53,0.00191,133.03,,,,,,,
3992.55,0.00188,128.52,,,,,,,
3992.57,0.00186,124.21,,,,,,,
3992.59,0.00183,119.68,,,,,,,
3992.61,0.0018,115.76,,,,,,,
3992.63,0.00178,111.77,,,,,,,
3992.64,0.00175,108.12,,,,,,,
3992.67,0.00173,104.41,,,,,,,
3992.69,0.0017,100.7,,,,,,,
3992.71,0.00168,96.78,,,,,,,
3992.73,0.00165,93.33,,,,,,,
3992.76,0.00163,89.2,,,,,,,
3992.79,0.0016,85.65,,,,,,,
3992.81,0.00158,82.36,,,,,,,
3992.84,0.00155,78.72,,,,,,,
3992.86,0.00152,75.32,,,,,,,
3992.89,0.0015,72.01,,,,,,,
3992.92,0.00147,68.71,,,,,,,
3992.94,0.00145,65.23,,,,,,,
3992.97,0.00142,61.59,,,,,,,
3993.0,0.0014,58.42,,,,,,,
3993.03,0.00137,55.08,,,,,,,
3993.06,0.00135,51.3,,,,,,,
3993.09,0.00132,47.52,,,,,,,
3993.12,0.0013,43.8,,,,,,,
3993.15,0.00127,39.8,,,,,,,
3993.18,0.00124,35.94,,,,,,,
3993.21,0.00122,32.26,,,,,,,
3993.24,0.00119,28.59,,,,,,,
3993.26,0.00117,25.18,,,,,,,
3993.29,0.00114,21.74,,,,,,,
3993.32,0.00112,18.24,,,,,,,
3993.34,0.00109,14.7,,,,,,,
3993.37,0.00107,11.31,,,,,,,
3993.4,0.00104,7.85,,,,,,,
3993.43,0.00101,4.33,,,,,,,
3993.45,0.00099,1.3,,,,,,,
3993.48,0.00096,-1.79,,,,,,,
3993.5,0.00094,-4.87,,,,,,,
3993.53,0.00091,-7.59,,,,,,,
3993.55,0.00089,-10.35,,,,,,,
3993.58,0.00086,-13.41,,,,,,,
3993.61,0.00084,-16.1,,,,,,,
3993.65,0.00081,-18.01,,,,,,,
3993.73,0.00079,-18.35,,,,,,,
3993.79,0.00076,-20.4,,,,,,,
3993.83,0.00074,-22.84,,,,,,,
3993.87,0.00071,-25.45,,,,,,,
3993.91,0.00068,-28.24,,,,,,,
3993.94,0.00066,-30.72,,,,,,,
3993.96,0.00063,-33.17,,,,,,,
3993.99,0.00061,-36.2,,,,,,,
3994.02,0.00058,-39.08,,,,,,,
3994.04,0.00056,-41.76,,,,,,,
3994.06,0.00053,-44.83,,,,,,,
3994.08,0.0005,-48.28,,,,,,,
3994.09,0.00048,-51.37,,,,,,,
3994.11,0.00045,-54.03,,,,,,,
3994.12,0.00043,-56.68,,,,,,,
3994.14,0.0004,-59.53,,,,,,,
3994.15,0.00038,-62.37,,,,,,,
3994.17,0.00035,-65.03,,,,,,,
3994.18,0.00033,-67.8,,,,,,,
3994.2,0.0003,-70.36,,,,,,,
3994.21,0.00027,-72.87,,,,,,,
3994.23,0.00025,-75.3,,,,,,,
3994.24,0.00022,-77.72,,,,,,,
3994.26,0.0002,-80.23,,,,,,,
3994.28,0.00017,-82.68,,,,,,,
3994.29,0.00014,-85.12,,,,,,,
3994.31,0.00012,-87.24,,,,,,,
3994.33,9e-05,-89.18,,,,,,,
3994.35,7e-05,-91.09,,,,,,,
3994.37,4e-05,-92.96,,,,,,,
3994.38,2e-05,-94.69,,,,,,,
3994.4,-1e-05,-96.48,,,,,,,
3994.43,-4e-05,-98.08,,,,,,,
3994.45,-6e-05,-99.56,,,,,,,
3994.47,-9e-05,-101.09,,,,,,,
3994.49,-0.00011,-102.43,,,,,,,
3994.52,-0.00014,-103.82,,,,,,,
3994.54,-0.00016,-105.21,,,,,,,
3994.57,-0.00019,-106.34,,,,,,,
3994.59,-0.00021,-107.41,,,,,,,
3994.61,-0.00024,-108.51,,,,,,,
3994.64,-0.00027,-109.62,,,,,,,
3994.67,-0.00029,-110.69,,,,,,,
3994.69,-0.00032,-111.74,,,,,,,
3994.72,-0.00034,-112.77,,,,,,,
3994.75,-0.00037,-114.01,,,,,,,
3994.78,-0.00039,-115.19,,,,,,,
3994.81,-0.00042,-116.46,,,,,,,
3994.84,-0.00044,-117.93,,,,,,,
3994.86,-0.00047,-119.27,,,,,,,
3994.89,-0.00049,-120.45,,,,,,,
3994.91,-0.00052,-121.71,,,,,,,
3994.93,-0.00054,-123.08,,,,,,,
3994.96,-0.00057,-124.55,,,,,,,
3994.99,-0.0006,-125.84,,,,,,,
3995.01,-0.00062,-127.17,,,,,,,
3995.04,-0.00065,-128.56,,,,,,,
3995.07,-0.00067,-129.83,,,,,,,
3995.09,-0.0007,-131.13,,,,,,,
3995.12,-0.00072,-132.34,,,,,,,
3995.14,-0.00075,-133.58,,,,,,,
3995.17,-0.00077,-134.83,,,,,,,
3995.2,-0.0008,-136.07,,,,,,,
3995.22,-0.00082,-137.25,,,,,,,
3995.25,-0.00085,-138.53,,,,,,,
3995.27,-0.00088,-139.7,,,,,,,
3995.3,-0.0009,-140.9,,,,,,,
3995.32,-0.00093,-142.09,,,,,,,
3995.35,-0.00095,-143.26,,,,,,,
3995.37,-0.00098,-144.39,,,,,,,
3995.4,-0.001,-145.46,,,,,,,
3995.42,-0.00103,-146.54,,,,,,,
3995.45,-0.00105,-147.46,,,,,,,
3995.47,-0.00108,-148.51,,,,,,,
3995.5,-0.00111,-149.55,,,,,,,
3995.52,-0.00113,-150.54,,,,,,,
3995.54,-0.00116,-151.41,,,,,,,
3995.58,-0.00118,-152.45,,,,,,,
3995.6,-0.00121,-153.31,,,,,,,
3995.62,-0.00123,-154.12,,,,,,,
3995.65,-0.00126,-155.03,,,,,,,
3995.67,-0.00128,-155.83,,,,,,,
3995.7,-0.00131,-156.68,,,,,,,
3995.72,-0.00133,-157.4,,,,,,,
3995.74,-0.00136,-158.15,,,,,,,
3995.77,-0.00138,-158.81,,,,,,,
3995.79,-0.00141,-159.44,,,,,,,
3995.82,-0.00144,-160.05,,,,,,,
3995.84,-0.00146,-160.74,,,,,,,
3995.87,-0.00149,-161.38,,,,,,,
3995.89,-0.00151,-161.91,,,,,,,
3995.92,-0.00154,-162.45,,,,,,,
3995.95,-0.00156,-163.11,,,,,,,
3995.98,-0.00159,-163.62,,,,,,,
3996.0,-0.00161,-164.16,,,,,,,
3996.03,-0.00164,-164.74,,,,,,,
3996.05,-0.00166,-165.32,,,,,,,
3996.08,-0.00169,-165.94,,,,,,,
3996.1,-0.00172,-166.48,,,,,,,
3996.13,-0.00174,-166.97,,,,,,,
3996.16,-0.00177,-167.59,,,,,,,
3996.19,-0.00179,-168.05,,,,,,,
3996.21,-0.00182,-168.5,,,,,,,
3996.24,-0.00184,-168.91,,,,,,,
3996.26,-0.00187,-169.31,,,,,,,
3996.29,-0.00189,-169.7,,,,,,,
3996.31,-0.00192,-170.04,,,,,,,
3996.34,-0.00195,-170.17,,,,,,,
3996.37,-0.00197,-169.55,,,,,,,
3996.42,-0.002,-166.1,,,,,,,
3996.52,-0.00197,-148.53,,,,,,,
3996.54,-0.00194,-143.33,,,,,,,
3996.55,-0.00192,-138.71,,,,,,,
3996.57,-0.00189,-133.83,,,,,,,
3996.59,-0.00187,-129.24,,,,,,,
3996.6,-0.00184,-125.0,,,,,,,
3996.62,-0.00181,-120.71,,,,,,,
3996.63,-0.00179,-116.86,,,,,,,
3996.65,-0.00176,-113.11,,,,,,,
3996.67,-0.00174,-109.61,,,,,,,
3996.68,-0.00171,-106.1,,,,,,,
3996.7,-0.00169,-102.72,,,,,,,
3996.72,-0.00166,-99.53,,,,,,,
3996.74,-0.00163,-96.04,,,,,,,
3996.76,-0.00161,-92.49,,,,,,,
3996.79,-0.00158,-88.66,,,,,,,
3996.82,-0.00156,-84.37,,,,,,,
3996.86,-0.00153,-79.64,,,,,,,
3996.89,-0.00151,-75.48,,,,,,,
3996.92,-0.00148,-71.59,,,,,,,
3996.95,-0.00146,-67.52,,,,,,,
3996.97,-0.00143,-63.54,,,,,,,
3997.0,-0.00141,-59.92,,,,,,,
3997.03,-0.00138,-56.35,,,,,,,
3997.05,-0.00135,-53.0,,,,,,,
3997.08,-0.00133,-49.41,,,,,,,
3997.11,-0.0013,-45.44,,,,,,,
3997.13,-0.00128,-41.99,,,,,,,
3997.16,-0.00125,-38.03,,,,,,,
3997.19,-0.00123,-34.47,,,,,,,
3997.21,-0.0012,-31.34,,,,,,,
3997.23,-0.00117,-28.66,,,,,,,
3997.26,-0.00115,-25.48,,,,,,,
3997.29,-0.00112,-21.79,,,,,,,
3997.32,-0.0011,-18.3,,,,,,,
3997.34,-0.00107,-15.09,,,,,,,
3997.37,-0.00105,-12.13,,,,,,,
3997.4,-0.00102,-8.76,,,,,,,
3997.42,-0.001,-5.78,,,,,,,
3997.45,-0.00097,-2.67,,,,,,,
3997.47,-0.00094,0.24,,,,,,,
3997.5,-0.00092,3.22,,,,,,,
3997.53,-0.00089,5.99,,,,,,,
3997.55,-0.00087,9.16,,,,,,,
3997.58,-0.00084,12.2,,,,,,,
3997.61,-0.00082,15.6,,,,,,,
3997.64,-0.00079,18.86,,,,,,,
3997.67,-0.00077,22.02,,,,,,,
3997.7,-0.00074,24.55,,,,,,,
3997.74,-0.00072,26.88,,,,,,,
3997.78,-0.00069,28.8,,,,,,,
3997.81,-0.00066,30.57,,,,,,,
3997.85,-0.00064,32.81,,,,,,,
3997.9,-0.00061,35.22,,,,,,,
3997.93,-0.00059,38.0,,,,,,,
3997.96,-0.00056,41.55,,,,,,,
3997.97,-0.00054,44.34,,,,,,,
3997.99,-0.00051,47.21,,,,,,,
3998.01,-0.00048,49.95,,,,,,,
3998.03,-0.00046,52.38,,,,,,,
3998.05,-0.00043,54.63,,,,,,,
3998.07,-0.00041,56.9,,,,,,,
3998.1,-0.00038,58.96,,,,,,,
3998.12,-0.00035,60.86,,,,,,,
3998.15,-0.00033,62.67,,,,,,,
3998.19,-0.0003,64.91,,,,,,,
3998.22,-0.00028,66.82,,,,,,,
3998.26,-0.00025,68.85,,,,,,,
7994.71,-0.00022,76.06,,,,,,,
7994.74,-0.0002,77.98,,,,,,,
7994.77,-0.00017,80.17,,,,,,,
7994.8,-0.00015,82.47,,,,,,,
7994.83,-0.00012,84.66,,,,,,,
7994.85,-9e-05,86.67,,,,,,,
7994.87,-7e-05,88.87,,,,,,,
7994.88,-4e-05,90.9,,,,,,,
7994.9,-2e-05,93.37,,,,,,,
7994.92,1e-05,96.02,,,,,,,
7994.94,3e-05,98.63,,,,,,,
7994.96,6e-05,100.97,,,,,,,
7994.97,9e-05,103.46,,,,,,,
7994.99,0.00011,105.61,,,,,,,
7995.0,0.00014,107.65,,,,,,,
7995.02,0.00016,109.83,,,,,,,
7995.04,0.00019,111.84,,,,,,,
7995.05,0.00021,113.78,,,,,,,
7995.07,0.00024,115.59,,,,,,,
7995.09,0.00027,117.2,,,,,,,
7995.11,0.00029,118.64,,,,,,,
7995.12,0.00032,120.08,,,,,,,
7995.15,0.00034,121.48,,,,,,,
7995.16,0.00037,122.67,,,,,,,
7995.18,0.00039,123.71,,,,,,,
7995.21,0.00042,124.75,,,,,,,
7995.23,0.00045,125.62,,,,,,,
7995.25,0.00047,126.45,,,,,,,
7995.28,0.0005,127.3,,,,,,,
7995.31,0.00052,128.25,,,,,,,
7995.34,0.00055,129.23,,,,,,,
7995.37,0.00057,130.14,,,,,,,
7995.4,0.0006,131.28,,,,,,,
7995.43,0.00062,132.54,,,,,,,
7995.46,0.00065,133.77,,,,,,,
7995.48,0.00068,135.08,,,,,,,
7995.51,0.0007,136.59,,,,,,,
7995.54,0.00073,137.93,,,,,,,
7995.56,0.00075,139.19,,,,,,,
7995.58,0.00078,140.49,,,,,,,
7995.61,0.0008,141.85,,,,,,,
7995.63,0.00083,143.19,,,,,,,
7995.66,0.00085,144.3,,,,,,,
7995.68,0.00088,145.46,,,,,,,
7995.7,0.0009,146.45,,,,,,,
7995.72,0.00093,147.32,,,,,,,
7995.75,0.00096,148.32,,,,,,,
7995.77,0.00098,149.29,,,,,,,
7995.8,0.00101,150.08,,,,,,,
7995.82,0.00103,150.8,,,,,,,
7995.84,0.00106,151.61,,,,,,,
7995.87,0.00108,152.37,,,,,,,
7995.9,0.00111,153.18,,,,,,,
7995.93,0.00113,153.96,,,,,,,
7995.95,0.00116,154.69,,,,,,,
7995.98,0.00118,155.38,,,,,,,
7996.0,0.00121,156.08,,,,,,,
7996.03,0.00123,156.84,,,,,,,
7996.05,0.00126,157.52,,,,,,,
7996.08,0.00129,158.24,,,,,,,
7996.1,0.00131,158.95,,,,,,,
7996.12,0.00134,159.54,,,,,,,
7996.15,0.00136,160.08,,,,,,,
7996.17,0.00139,160.65,,,,,,,
7996.19,0.00141,161.11,,,,,,,
7996.22,0.00144,161.53,,,,,,,
7996.25,0.00147,161.97,,,,,,,
7996.27,0.00149,162.32,,,,,,,
7996.3,0.00152,162.7,,,,,,,
7996.32,0.00154,162.99,,,,,,,
7996.35,0.00157,163.39,,,,,,,
7996.38,0.00159,163.76,,,,,,,
7996.4,0.00162,164.2,,,,,,,
7996.42,0.00164,164.51,,,,,,,
7996.44,0.00167,164.9,,,,,,,
7996.47,0.00169,165.15,,,,,,,
7996.49,0.00172,165.34,,,,,,,
7996.52,0.00175,165.5,,,,,,,
7996.54,0.00177,165.68,,,,,,,
7996.57,0.0018,165.71,,,,,,,
7996.59,0.00182,165.78,,,,,,,
7996.62,0.00185,165.84,,,,,,,
7996.64,0.00187,165.89,,,,,,,
7996.67,0.0019,165.92,,,,,,,
7996.69,0.00192,165.97,,,,,,,
7996.72,0.00195,165.94,,,,,,,
7996.74,0.00198,165.51,,,,,,,
7996.77,0.002,163.94,,,,,,,
7996.88,0.00197,146.51,,,,,,,
7996.9,0.00195,140.94,,,,,,,
7996.92,0.00192,136.06,,,,,,,
7996.94,0.0019,131.94,,,,,,,
7996.96,0.00187,127.74,,,,,,,
7996.98,0.00185,123.54,,,,,,,
7997.0,0.00182,119.49,,,,,,,
7997.02,0.00179,115.48,,,,,,,
7997.04,0.00177,111.52,,,,,,,
7997.06,0.00174,107.14,,,,,,,
7997.08,0.00172,102.91,,,,,,,
7997.11,0.00169,99.11,,,,,,,
7997.13,0.00167,95.83,,,,,,,
7997.15,0.00164,92.31,,,,,,,
7997.18,0.00162,88.37,,,,,,,
7997.21,0.00159,84.02,,,,,,,
7997.24,0.00157,80.15,,,,,,,
7997.27,0.00154,76.44,,,,,,,
7997.29,0.00152,72.67,,,,,,,
7997.32,0.00149,68.99,,,,,,,
7997.35,0.00146,65.41,,,,,,,
7997.38,0.00144,61.32,,,,,,,
7997.41,0.00141,57.42,,,,,,,
7997.44,0.00139,53.52,,,,,,,
7997.46,0.00136,49.82,,,,,,,
7997.49,0.00134,46.46,,,,,,,
7997.51,0.00131,43.32,,,,,,,
7997.54,0.00129,39.81,,,,,,,
7997.57,0.00126,36.36,,,,,,,
7997.59,0.00124,33.02,,,,,,,
7997.63,0.00121,28.94,,,,,,,
7997.65,0.00118,25.41,,,,,,,
7997.68,0.00116,22.07,,,,,,,
7997.71,0.00113,18.62,,,,,,,
7997.74,0.00111,14.99,,,,,,,
7997.76,0.00108,12.06,,,,,,,
7997.78,0.00106,9.08,,,,,,,
7997.81,0.00103,5.85,,,,,,,
7997.84,0.00101,2.93,,,,,,,
7997.86,0.00098,0.03,,,,,,,
7997.89,0.00095,-3.18,,,,,,,
7997.92,0.00093,-6.62,,,,,,,
7997.95,0.0009,-9.74,,,,,,,
7997.98,0.00088,-13.25,,,,,,,
7998.01,0.00085,-16.06,,,,,,,
7998.05,0.00083,-17.99,,,,,,,
7998.15,0.0008,-19.14,,,,,,,
7998.21,0.00078,-22.07,,,,,,,
7998.25,0.00075,-24.95,,,,,,,
7998.28,0.00072,-27.85,,,,,,,
7998.32,0.0007,-30.69,,,,,,,
7998.34,0.00067,-33.22,,,,,,,
7998.37,0.00065,-36.09,,,,,,,
7998.4,0.00062,-39.17,,,,,,,
7998.42,0.0006,-42.17,,,,,,,
7998.44,0.00057,-45.4,,,,,,,
7998.46,0.00055,-49.09,,,,,,,
7998.48,0.00052,-52.1,,,,,,,
7998.49,0.00049,-55.12,,,,,,,
7998.51,0.00047,-58.29,,,,,,,
7998.53,0.00044,-61.28,,,,,,,
7998.54,0.00042,-64.38,,,,,,,
7998.56,0.00039,-67.36,,,,,,,
7998.57,0.00037,-70.12,,,,,,,
7998.59,0.00034,-72.97,,,,,,,
7998.6,0.00031,-75.68,,,,,,,
7998.62,0.00029,-78.28,,,,,,,
7998.63,0.00026,-80.76,,,,,,,
7998.65,0.00024,-83.31,,,,,,,
7998.66,0.00021,-85.74,,,,,,,
7998.68,0.00019,-88.08,,,,,,,
7998.69,0.00016,-90.27,,,,,,,
7998.71,0.00013,-92.38,,,,,,,
7998.73,0.00011,-94.5,,,,,,,
7998.74,8e-05,-96.46,,,,,,,
7998.76,6e-05,-98.37,,,,,,,
7998.78,3e-05,-100.16,,,,,,,
7998.8,0.0,-101.85,,,,,,,
7998.82,-2e-05,-103.45,,,,,,,
7998.84,-5e-05,-105.01,,,,,,,
7998.86,-7e-05,-106.39,,,,,,,
7998.88,-0.0001,-107.62,,,,,,,
7998.91,-0.00012,-108.83,,,,,,,
7998.93,-0.00015,-109.94,,,,,,,
7998.96,-0.00017,-111.04,,,,,,,
7998.98,-0.0002,-112.06,,,,,,,
7999.01,-0.00022,-113.03,,,,,,,
7999.03,-0.00025,-113.98,,,,,,,
7999.06,-0.00027,-114.86,,,,,,,
7999.08,-0.0003,-115.87,,,,,,,
7999.11,-0.00033,-116.88,,,,,,,
7999.14,-0.00035,-117.75,,,,,,,
7999.17,-0.00038,-118.7,,,,,,,
7999.2,-0.0004,-119.72,,,,,,,
7999.22,-0.00043,-120.77,,,,,,,
7999.25,-0.00045,-121.75,,,,,,,
7999.27,-0.00048,-122.77,,,,,,,
7999.3,-0.0005,-123.92,,,,,,,
7999.33,-0.00053,-124.95,,,,,,,
7999.36,-0.00056,-126.13,,,,,,,
7999.38,-0.00058,-127.48,,,,,,,
7999.41,-0.00061,-128.66,,,,,,,
7999.44,-0.00063,-129.88,,,,,,,
7999.46,-0.00066,-131.18,,,,,,,
7999.49,-0.00068,-132.48,,,,,,,
7999.52,-0.00071,-133.9,,,,,,,
7999.54,-0.00073,-135.32,,,,,,,
7999.57,-0.00076,-136.76,,,,,,,
7999.6,-0.00078,-138.36,,,,,,,
7999.63,-0.00081,-139.76,,,,,,,
7999.65,-0.00083,-141.16,,,,,,,
7999.67,-0.00086,-142.56,,,,,,,
7999.7,-0.00089,-143.95,,,,,,,
7999.72,-0.00091,-145.28,,,,,,,
7999.75,-0.00094,-146.64,,,,,,,
7999.77,-0.00096,-147.87,,,,,,,
7999.8,-0.00099,-149.03,,,,,,,
7999.82,-0.00101,-150.08,,,,,,,
7999.83,-0.00103,-150.62,,,,,,,
7999.84,-0.00104,-151.06,,,,,,,
7999.86,-0.00106,-152.01,,,,,,,
7999.89,-0.00109,-153.11,,,,,,,
7999.92,-0.00111,-154.02,,,,,,,
7999.94,-0.00114,-154.77,,,,,,,
7999.96,-0.00117,-155.62,,,,,,,
7999.98,-0.00119,-156.28,,,,,,,
8000.0,-0.00122,-156.96,,,,,,,
8000.03,-0.00124,-157.59,,,,,,,
8000.06,-0.00127,-158.14,,,,,,,
8000.08,-0.00129,-158.64,,,,,,,
8000.11,-0.00132,-159.13,,,,,,,
8000.13,-0.00134,-159.61,,,,,,,
8000.16,-0.00137,-160.02,,,,,,,
8000.18,-0.00139,-160.44,,,,,,,
8000.21,-0.00142,-161.02,,,,,,,
8000.23,-0.00145,-161.54,,,,,,,
8000.26,-0.00147,-161.99,,,,,,,
8000.29,-0.0015,-162.48,,,,,,,
8000.31,-0.00152,-162.86,,,,,,,
8000.33,-0.00155,-163.36,,,,,,,
8000.36,-0.00157,-163.69,,,,,,,
8000.38,-0.0016,-164.07,,,,,,,
8000.41,-0.00162,-164.42,,,,,,,
8000.44,-0.00165,-164.91,,,,,,,
8000.47,-0.00168,-165.3,,,,,,,
8000.5,-0.0017,-165.71,,,,,,,
8000.52,-0.00173,-166.12,,,,,,,
8000.55,-0.00175,-166.58,,,,,,,
8000.57,-0.00178,-166.99,,,,,,,
8000.6,-0.0018,-167.46,,,,,,,
8000.63,-0.00183,-167.87,,,,,,,
8000.65,-0.00185,-168.26,,,,,,,
8000.68,-0.00188,-168.63,,,,,,,
8000.7,-0.0019,-169.0,,,,,,,
8000.72,-0.00193,-169.25,,,,,,,
8000.75,-0.00195,-169.29,,,,,,,
8000.77,-0.00198,-168.54,,,,,,,
8000.94,-0.00195,-143.85,,,,,,,
8000.96,-0.00193,-138.57,,,,,,,
8000.97,-0.0019,-133.7,,,,,,,
8000.99,-0.00188,-128.95,,,,,,,
8001.01,-0.00185,-124.49,,,,,,,
8001.03,-0.00182,-120.2,,,,,,,
8001.04,-0.0018,-116.33,,,,,,,
8001.06,-0.00177,-112.07,,,,,,,
8001.08,-0.00175,-108.16,,,,,,,
8001.1,-0.00172,-103.77,,,,,,,
8001.12,-0.0017,-99.57,,,,,,,
8001.14,-0.00167,-95.6,,,,,,,
8001.16,-0.00165,-91.35,,,,,,,
8001.19,-0.00162,-87.47,,,,,,,
8001.21,-0.00159,-83.92,,,,,,,
8001.24,-0.00157,-79.48,,,,,,,
8001.27,-0.00154,-75.49,,,,,,,
8001.3,-0.00152,-71.04,,,,,,,
8001.33,-0.00149,-66.82,,,,,,,
8001.36,-0.00147,-62.48,,,,,,,
8001.39,-0.00144,-58.47,,,,,,,
8001.41,-0.00142,-54.51,,,,,,,
8001.44,-0.00139,-50.44,,,,,,,
8001.47,-0.00136,-46.54,,,,,,,
8001.49,-0.00134,-42.89,,,,,,,
8001.52,-0.00131,-39.27,,,,,,,
8001.54,-0.00129,-35.65,,,,,,,
8001.57,-0.00126,-32.47,,,,,,,
8001.59,-0.00124,-29.24,,,,,,,
8001.62,-0.00121,-25.4,,,,,,,
8001.65,-0.00119,-21.67,,,,,,,
8001.68,-0.00116,-17.66,,,,,,,
8001.71,-0.00114,-13.91,,,,,,,
8001.73,-0.00111,-10.78,,,,,,,
8001.76,-0.00109,-7.71,,,,,,,
8001.78,-0.00106,-4.44,,,,,,,
8001.8,-0.00103,-1.7,,,,,,,
8001.83,-0.00101,1.3,,,,,,,
8001.86,-0.00098,4.49,,,,,,,
8001.88,-0.00096,7.64,,,,,,,
8001.91,-0.00093,10.62,,,,,,,
8001.94,-0.00091,13.51,,,,,,,
8001.96,-0.00088,16.31,,,,,,,
8001.99,-0.00086,18.95,,,,,,,
8002.01,-0.00083,21.6,,,,,,,
8002.04,-0.0008,23.84,,,,,,,
8002.07,-0.00078,25.59,,,,,,,
8002.12,-0.00075,27.81,,,,,,,
8002.17,-0.00073,30.04,,,,,,,
8002.2,-0.0007,32.53,,,,,,,
8002.24,-0.00068,34.52,,,,,,,
8002.27,-0.00065,36.87,,,,,,,
8002.3,-0.00063,40.24,,,,,,,
8002.32,-0.0006,43.26,,,,,,,
8002.34,-0.00058,46.12,,,,,,,
8002.36,-0.00055,48.69,,,,,,,
8002.38,-0.00052,51.02,,,,,,,
8002.4,-0.0005,53.41,,,,,,,
8002.42,-0.00047,55.65,,,,,,,
8002.45,-0.00045,57.97,,,,,,,
8002.48,-0.00042,60.17,,,,,,,
8002.51,-0.0004,62.18,,,,,,,
8002.54,-0.00037,64.02,,,,,,,
8002.56,-0.00034,65.61,,,,,,,
8002.59,-0.00032,67.2,,,,,,,
8002.62,-0.00029,68.84,,,,,,,
8002.65,-0.00027,70.66,,,,,,,
8002.68,-0.00024,72.64,,,,,,,
11600.66,0.00192,164.21,,,,,,,
11600.68,0.00195,164.34,,,,,,,
11600.71,0.00197,163.87,,,,,,,
11600.74,0.002,162.06,,,,,,,
11600.84,0.00197,145.42,,,,,,,
11600.87,0.00195,139.98,,,,,,,
11600.89,0.00192,134.9,,,,,,,
11600.91,0.0019,130.23,,,,,,,
11600.93,0.00187,125.73,,,,,,,
11600.95,0.00184,121.09,,,,,,,
11600.97,0.00182,116.95,,,,,,,
11600.98,0.00179,113.07,,,,,,,
11601.0,0.00177,109.12,,,,,,,
11601.02,0.00174,105.42,,,,,,,
11601.04,0.00172,102.09,,,,,,,
11601.06,0.00169,98.59,,,,,,,
11601.08,0.00166,95.12,,,,,,,
11601.11,0.00164,91.5,,,,,,,
11601.13,0.00161,88.07,,,,,,,
11601.16,0.00159,84.61,,,,,,,
11601.18,0.00156,81.13,,,,,,,
11601.21,0.00154,77.53,,,,,,,
11601.24,0.00151,74.38,,,,,,,
11601.26,0.00149,71.49,,,,,,,
11601.29,0.00146,68.53,,,,,,,
11601.31,0.00143,65.5,,,,,,,
11601.34,0.00141,62.57,,,,,,,
11601.37,0.00138,59.43,,,,,,,
11601.4,0.00136,55.6,,,,,,,
11601.44,0.00133,51.68,,,,,,,
11601.46,0.00131,48.5,,,,,,,
11601.49,0.00128,45.12,,,,,,,
11601.52,0.00126,42.26,,,,,,,
11601.54,0.00123,38.75,,,,,,,
11601.57,0.00121,35.38,,,,,,,
11601.6,0.00118,32.36,,,,,,,
11601.62,0.00115,29.3,,,,,,,
11601.65,0.00113,26.25,,,,,,,
11601.67,0.0011,23.48,,,,,,,
11601.7,0.00108,20.33,,,,,,,
11601.73,0.00105,16.91,,,,,,,
11601.76,0.00103,13.55,,,,,,,
11601.79,0.001,10.5,,,,,,,
11601.82,0.00098,7.29,,,,,,,
11601.85,0.00095,4.22,,,,,,,
11601.87,0.00092,1.54,,,,,,,
11601.89,0.0009,-0.88,,,,,,,
11601.92,0.00087,-3.74,,,,,,,
11601.95,0.00085,-6.42,,,,,,,
11601.97,0.00082,-9.06,,,,,,,
11602.0,0.0008,-11.89,,,,,,,
11602.03,0.00077,-14.49,,,,,,,
11602.08,0.00075,-16.42,,,,,,,
11602.19,0.00072,-18.15,,,,,,,
11602.23,0.0007,-20.47,,,,,,,
11602.27,0.00067,-23.09,,,,,,,
11602.3,0.00065,-25.5,,,,,,,
11602.34,0.00062,-28.41,,,,,,,
11602.37,0.00059,-31.18,,,,,,,
11602.4,0.00057,-34.0,,,,,,,
11602.43,0.00054,-36.91,,,,,,,
11602.45,0.00052,-39.72,,,,,,,
11602.47,0.00049,-42.43,,,,,,,
11602.49,0.00047,-45.09,,,,,,,
11602.51,0.00044,-48.52,,,,,,,
11602.52,0.00041,-51.42,,,,,,,
11602.54,0.00039,-54.22,,,,,,,
11602.55,0.00036,-56.99,,,,,,,
11602.57,0.00034,-59.69,,,,,,,
11602.59,0.00031,-62.43,,,,,,,
11602.6,0.00028,-65.06,,,,,,,
11602.62,0.00026,-67.52,,,,,,,
11602.63,0.00023,-70.13,,,,,,,
11602.65,0.00021,-72.68,,,,,,,
11602.66,0.00018,-75.18,,,,,,,
11602.68,0.00015,-77.83,,,,,,,
11602.7,0.00013,-80.36,,,,,,,
11602.72,0.0001,-82.82,,,,,,,
11602.73,8e-05,-85.19,,,,,,,
11602.75,5e-05,-87.36,,,,,,,
11602.77,2e-05,-89.17,,,,,,,
11602.78,-0.0,-91.08,,,,,,,
11602.8,-3e-05,-92.86,,,,,,,
11602.82,-5e-05,-94.64,,,,,,,
11602.84,-8e-05,-96.08,,,,,,,
11602.86,-0.0001,-97.51,,,,,,,
11602.88,-0.00013,-98.8,,,,,,,
11602.9,-0.00015,-100.11,,,,,,,
11602.92,-0.00018,-101.34,,,,,,,
11602.95,-0.00021,-102.52,,,,,,,
11602.97,-0.00023,-103.51,,,,,,,
11603.0,-0.00026,-104.49,,,,,,,
11603.02,-0.00028,-105.48,,,,,,,
11603.05,-0.00031,-106.48,,,,,,,
11603.08,-0.00033,-107.5,,,,,,,
11603.11,-0.00036,-108.67,,,,,,,
11603.14,-0.00038,-109.75,,,,,,,
11603.17,-0.00041,-111.06,,,,,,,
11603.2,-0.00044,-112.38,,,,,,,
11603.23,-0.00046,-114.02,,,,,,,
11603.26,-0.00049,-115.6,,,,,,,
11603.29,-0.00051,-117.35,,,,,,,
11603.32,-0.00054,-119.24,,,,,,,
11603.34,-0.00056,-120.83,,,,,,,
11603.37,-0.00059,-122.53,,,,,,,
11603.39,-0.00062,-124.09,,,,,,,
11603.41,-0.00064,-125.51,,,,,,,
11603.44,-0.00067,-126.95,,,,,,,
11603.46,-0.00069,-128.45,,,,,,,
11603.48,-0.00072,-129.76,,,,,,,
11603.51,-0.00074,-131.07,,,,,,,
11603.53,-0.00077,-132.29,,,,,,,
11603.55,-0.0008,-133.38,,,,,,,
11603.58,-0.00082,-134.53,,,,,,,
11603.6,-0.00085,-135.66,,,,,,,
11603.63,-0.00087,-136.67,,,,,,,
11603.65,-0.0009,-137.55,,,,,,,
11603.68,-0.00092,-138.77,,,,,,,
11603.71,-0.00095,-139.88,,,,,,,
11603.73,-0.00097,-140.91,,,,,,,
11603.76,-0.001,-142.01,,,,,,,
11603.79,-0.00102,-143.27,,,,,,,
11603.82,-0.00105,-144.28,,,,,,,
11603.84,-0.00108,-145.38,,,,,,,
11603.87,-0.0011,-146.43,,,,,,,
11603.89,-0.00113,-147.44,,,,,,,
11603.92,-0.00115,-148.52,,,,,,,
11603.94,-0.00118,-149.63,,,,,,,
11603.96,-0.0012,-150.62,,,,,,,
11603.99,-0.00123,-151.67,,,,,,,
11604.01,-0.00125,-152.53,,,,,,,
11604.04,-0.00128,-153.46,,,,,,,
11604.06,-0.0013,-154.27,,,,,,,
11604.09,-0.00133,-155.11,,,,,,,
11604.11,-0.00136,-156.01,,,,,,,
11604.14,-0.00138,-156.9,,,,,,,
11604.17,-0.00141,-157.73,,,,,,,
11604.19,-0.00143,-158.44,,,,,,,
11604.21,-0.00146,-159.07,,,,,,,
11604.23,-0.00148,-159.67,,,,,,,
11604.26,-0.00151,-160.33,,,,,,,
11604.28,-0.00153,-161.04,,,,,,,
11604.31,-0.00156,-161.55,,,,,,,
11604.34,-0.00158,-162.15,,,,,,,
11604.36,-0.00161,-162.65,,,,,,,
11604.39,-0.00164,-163.28,,,,,,,
11604.42,-0.00166,-163.91,,,,,,,
11604.45,-0.00169,-164.58,,,,,,,
11604.47,-0.00171,-165.25,,,,,,,
11604.5,-0.00174,-165.88,,,,,,,
11604.53,-0.00176,-166.49,,,,,,,
11604.55,-0.00179,-167.02,,,,,,,
11604.58,-0.00181,-167.59,,,,,,,
11604.6,-0.00184,-168.05,,,,,,,
11604.63,-0.00187,-168.46,,,,,,,
11604.65,-0.00189,-168.88,,,,,,,
11604.68,-0.00192,-169.2,,,,,,,
11604.7,-0.00194,-169.34,,,,,,,
11604.72,-0.00197,-169.13,,,,,,,
11604.75,-0.00199,-168.0,,,,,,,
11604.87,-0.00197,-148.22,,,,,,,
11604.89,-0.00194,-142.88,,,,,,,
11604.91,-0.00192,-138.1,,,,,,,
11604.93,-0.00189,-133.68,,,,,,,
11604.95,-0.00187,-129.37,,,,,,,
11604.96,-0.00184,-125.1,,,,,,,
11604.98,-0.00181,-120.86,,,,,,,
11605.0,-0.00179,-116.6,,,,,,,
11605.02,-0.00176,-112.22,,,,,,,
11605.04,-0.00174,-107.8,,,,,,,
11605.06,-0.00171,-103.39,,,,,,,
11605.09,-0.00168,-99.08,,,,,,,
11605.11,-0.00166,-94.92,,,,,,,
11605.13,-0.00163,-90.62,,,,,,,
11605.15,-0.00161,-87.32,,,,,,,
11605.18,-0.00158,-84.08,,,,,,,
11605.2,-0.00156,-80.34,,,,,,,
11605.23,-0.00153,-76.5,,,,,,,
11605.25,-0.00151,-72.76,,,,,,,
11605.28,-0.00148,-69.36,,,,,,,
11605.3,-0.00146,-66.11,,,,,,,
11605.33,-0.00143,-62.61,,,,,,,
11605.36,-0.0014,-59.25,,,,,,,
11605.38,-0.00138,-55.91,,,,,,,
11605.41,-0.00135,-53.12,,,,,,,
11605.43,-0.00133,-50.02,,,,,,,
11605.46,-0.0013,-46.58,,,,,,,
11605.49,-0.00128,-43.01,,,,,,,
11605.52,-0.00125,-39.85,,,,,,,
11605.55,-0.00123,-36.31,,,,,,,
11605.57,-0.0012,-33.44,,,,,,,
11605.6,-0.00118,-30.43,,,,,,,
11605.63,-0.00115,-26.57,,,,,,,
11605.66,-0.00112,-23.42,,,,,,,
11605.69,-0.0011,-20.06,,,,,,,
11605.71,-0.00107,-16.85,,,,,,,
11605.74,-0.00105,-13.68,,,,,,,
11605.77,-0.00102,-10.59,,,,,,,
11605.8,-0.001,-7.16,,,,,,,
11605.82,-0.00097,-4.14,,,,,,,
11605.85,-0.00095,-1.06,,,,,,,
11605.87,-0.00092,2.08,,,,,,,
11605.9,-0.00089,5.53,,,,,,,
11605.93,-0.00087,8.85,,,,,,,
11605.96,-0.00084,11.98,,,,,,,
11605.99,-0.00082,15.12,,,,,,,
11606.01,-0.00079,18.11,,,,,,,
11606.04,-0.00077,21.08,,,,,,,
11606.07,-0.00074,23.83,,,,,,,
11606.09,-0.00072,25.86,,,,,,,
11606.13,-0.00069,27.71,,,,,,,
11606.18,-0.00067,29.86,,,,,,,
11606.22,-0.00064,32.24,,,,,,,
11606.26,-0.00062,34.25,,,,,,,
11606.3,-0.00059,36.6,,,,,,,
11606.32,-0.00056,39.81,,,,,,,
11606.34,-0.00054,42.94,,,,,,,
11606.36,-0.00051,45.75,,,,,,,
11606.38,-0.00049,48.57,,,,,,,
11606.4,-0.00046,51.35,,,,,,,
11606.43,-0.00043,53.89,,,,,,,
11606.45,-0.00041,56.29,,,,,,,
11606.47,-0.00038,58.67,,,,,,,
11606.5,-0.00036,60.86,,,,,,,
11606.53,-0.00033,63.12,,,,,,,
11606.57,-0.00031,65.29,,,,,,,
11606.59,-0.00028,67.16,,,,,,,
11606.63,-0.00026,69.23,,,,,,,
11606.66,-0.00023,71.42,,,,,,,
11606.69,-0.0002,73.67,,,,,,,
11606.72,-0.00018,75.92,,,,,,,
11606.75,-0.00015,77.78,,,,,,,
11606.78,-0.00013,79.84,,,,,,,
11606.8,-0.0001,82.02,,,,,,,
11606.83,-8e-05,84.2,,,,,,,
11606.86,-5e-05,86.64,,,,,,,
11606.88,-3e-05,89.32,,,,,,,
11606.9,-0.0,91.85,,,,,,,
11606.92,3e-05,94.38,,,,,,,
11606.93,5e-05,96.69,,,,,,,
11606.95,8e-05,99.22,,,,,,,
11606.97,0.0001,101.75,,,,,,,
11606.98,0.00013,104.03,,,,,,,
11607.0,0.00016,106.36,,,,,,,
11607.01,0.00018,108.47,,,,,,,
11607.03,0.00021,110.78,,,,,,,
11607.05,0.00023,113.07,,,,,,,
11607.07,0.00026,115.05,,,,,,,
11607.08,0.00028,116.64,,,,,,,
11607.1,0.00031,118.36,,,,,,,
11607.12,0.00033,119.92,,,,,,,
11607.14,0.00036,121.41,,,,,,,
11607.16,0.00038,122.88,,,,,,,
11607.18,0.00041,124.22,,,,,,,
11607.2,0.00044,125.44,,,,,,,
11607.22,0.00046,126.66,,,,,,,
11607.25,0.00049,127.7,,,,,,,
11607.27,0.00051,128.74,,,,,,,
11607.3,0.00054,129.66,,,,,,,
11607.32,0.00056,130.66,,,,,,,
11607.35,0.00059,131.63,,,,,,,
11607.38,0.00061,132.62,,,,,,,
11607.41,0.00064,133.65,,,,,,,
11607.44,0.00067,134.89,,,,,,,
11607.47,0.00069,136.18,,,,,,,
11607.49,0.00072,137.36,,,,,,,
11607.52,0.00074,138.74,,,,,,,
11607.54,0.00077,139.98,,,,,,,
11607.56,0.00079,141.06,,,,,,,
11607.58,0.00082,142.16,,,,,,,
11607.61,0.00084,143.34,,,,,,,
11607.63,0.00087,144.39,,,,,,,
11607.66,0.00089,145.44,,,,,,,
11607.68,0.00092,146.43,,,,,,,
11607.71,0.00095,147.36,,,,,,,
11607.73,0.00097,148.26,,,,,,,
11607.76,0.001,149.01,,,,,,,
11607.78,0.00102,149.74,,,,,,,
11607.8,0.00105,150.47,,,,,,,
11607.83,0.00107,151.13,,,,,,,
11607.85,0.0011,151.84,,,,,,,
11607.88,0.00112,152.57,,,,,,,
11607.91,0.00115,153.33,,,,,,,
11607.94,0.00118,154.18,,,,,,,
11607.97,0.0012,154.93,,,,,,,
11607.99,0.00123,155.74,,,,,,,
11608.02,0.00125,156.54,,,,,,,
11608.04,0.00128,157.37,,,,,,,
11608.06,0.0013,158.08,,,,,,,
11608.08,0.00133,158.76,,,,,,,
11608.1,0.00135,159.34,,,,,,,
11608.13,0.00138,159.99,,,,,,,
11608.16,0.00141,160.55,,,,,,,
11608.18,0.00143,161.06,,,,,,,
11608.21,0.00146,161.6,,,,,,,
11608.23,0.00148,161.96,,,,,,,
11608.25,0.00151,162.39,,,,,,,
11608.28,0.00153,162.77,,,,,,,
11608.3,0.00156,163.07,,,,,,,
11608.33,0.00159,163.28,,,,,,,
11608.35,0.00161,163.47,,,,,,,
11608.38,0.00164,163.76,,,,,,,
11608.41,0.00166,164.01,,,,,,,
11608.44,0.00169,164.3,,,,,,,
11608.46,0.00171,164.56,,,,,,,
11608.48,0.00174,164.92,,,,,,,
11608.51,0.00176,165.13,,,,,,,
11608.53,0.00179,165.35,,,,,,,
11608.55,0.00182,165.55,,,,,,,
11608.58,0.00184,165.73,,,,,,,
11608.6,0.00187,165.84,,,,,,,
11608.63,0.00189,165.91,,,,,,,
11608.65,0.00192,165.97,,,,,,,
16003.51,-0.0002,70.82,,,,,,,
16003.54,-0.00018,72.71,,,,,,,
16003.57,-0.00015,74.89,,,,,,,
16003.6,-0.00013,76.92,,,,,,,
16003.63,-0.0001,78.82,,,,,,,
16003.65,-7e-05,80.57,,,,,,,
16003.68,-5e-05,82.46,,,,,,,
16003.7,-2e-05,84.72,,,,,,,
16003.73,0.0,87.44,,,,,,,
16003.75,3e-05,90.16,,,,,,,
16003.77,5e-05,92.77,,,,,,,
16003.79,8e-05,95.3,,,,,,,
16003.8,0.00011,97.81,,,,,,,
16003.82,0.00013,100.21,,,,,,,
16003.84,0.00016,102.48,,,,,,,
16003.85,0.00018,104.67,,,,,,,
16003.87,0.00021,106.8,,,,,,,
16003.88,0.00023,108.97,,,,,,,
16003.9,0.00026,111.11,,,,,,,
16003.92,0.00028,113.16,,,,,,,
16003.94,0.00031,115.1,,,,,,,
16003.96,0.00034,116.87,,,,,,,
16003.98,0.00036,118.61,,,,,,,
16004.0,0.00039,120.24,,,,,,,
16004.02,0.00041,121.86,,,,,,,
16004.04,0.00044,123.28,,,,,,,
16004.06,0.00046,124.68,,,,,,,
16004.08,0.00049,125.91,,,,,,,
16004.1,0.00051,127.01,,,,,,,
16004.13,0.00054,128.33,,,,,,,
16004.16,0.00056,129.59,,,,,,,
16004.18,0.00059,130.68,,,,,,,
16004.21,0.00062,131.9,,,,,,,
16004.23,0.00064,132.95,,,,,,,
16004.26,0.00067,134.1,,,,,,,
16004.29,0.00069,135.16,,,,,,,
16004.31,0.00072,136.22,,,,,,,
16004.34,0.00074,137.29,,,,,,,
16004.36,0.00077,138.41,,,,,,,
16004.38,0.00079,139.38,,,,,,,
16004.4,0.00082,140.31,,,,,,,
16004.43,0.00084,141.13,,,,,,,
16004.45,0.00087,142.01,,,,,,,
16004.48,0.00089,142.95,,,,,,,
16004.51,0.00092,143.77,,,,,,,
16004.53,0.00095,144.68,,,,,,,
16004.56,0.00097,145.57,,,,,,,
16004.59,0.001,146.46,,,,,,,
16004.61,0.00102,147.35,,,,,,,
16004.64,0.00105,148.28,,,,,,,
16004.66,0.00107,149.09,,,,,,,
16004.68,0.0011,149.87,,,,,,,
16004.71,0.00113,150.69,,,,,,,
16004.74,0.00115,151.44,,,,,,,
16004.76,0.00118,152.05,,,,,,,
16004.78,0.0012,152.71,,,,,,,
16004.81,0.00123,153.51,,,,,,,
16004.84,0.00125,154.21,,,,,,,
16004.86,0.00128,154.82,,,,,,,
16004.89,0.0013,155.47,,,,,,,
16004.91,0.00133,156.1,,,,,,,
16004.94,0.00135,156.65,,,,,,,
16004.96,0.00138,157.2,,,,,,,
16004.99,0.00141,157.83,,,,,,,
16005.01,0.00143,158.36,,,,,,,
16005.04,0.00146,158.81,,,,,,,
16005.06,0.00148,159.21,,,,,,,
16005.08,0.00151,159.68,,,,,,,
16005.11,0.00154,160.12,,,,,,,
16005.13,0.00156,160.47,,,,,,,
16005.16,0.00159,160.76,,,,,,,
16005.18,0.00161,161.0,,,,,,,
16005.21,0.00164,161.22,,,,,,,
16005.23,0.00166,161.46,,,,,,,
16005.25,0.00169,161.67,,,,,,,
16005.27,0.00171,161.84,,,,,,,
16005.3,0.00174,161.89,,,,,,,
16005.32,0.00177,161.84,,,,,,,
16005.34,0.00179,161.78,,,,,,,
16005.37,0.00182,161.61,,,,,,,
16005.4,0.00184,161.4,,,,,,,
16005.43,0.00187,161.19,,,,,,,
16005.46,0.00189,161.04,,,,,,,
16005.49,0.00192,161.07,,,,,,,
16005.51,0.00194,161.15,,,,,,,
16005.54,0.00197,160.75,,,,,,,
16005.58,0.00199,159.05,,,,,,,
16005.68,0.00197,143.11,,,,,,,
16005.71,0.00194,136.87,,,,,,,
16005.73,0.00192,131.41,,,,,,,
16005.75,0.00189,126.15,,,,,,,
16005.77,0.00187,121.24,,,,,,,
16005.79,0.00184,116.97,,,,,,,
16005.81,0.00182,113.02,,,,,,,
16005.83,0.00179,109.11,,,,,,,
16005.85,0.00176,105.07,,,,,,,
16005.87,0.00174,101.3,,,,,,,
16005.89,0.00171,97.44,,,,,,,
16005.91,0.00169,93.66,,,,,,,
16005.93,0.00166,90.41,,,,,,,
16005.95,0.00164,86.96,,,,,,,
16005.98,0.00161,83.23,,,,,,,
16006.0,0.00159,79.61,,,,,,,
16006.03,0.00156,76.49,,,,,,,
16006.05,0.00154,73.28,,,,,,,
16006.08,0.00151,70.05,,,,,,,
16006.1,0.00149,66.98,,,,,,,
16006.13,0.00146,63.44,,,,,,,
16006.17,0.00143,59.54,,,,,,,
16006.2,0.00141,55.81,,,,,,,
16006.23,0.00138,52.05,,,,,,,
16006.26,0.00136,48.37,,,,,,,
16006.29,0.00133,44.82,,,,,,,
16006.31,0.00131,41.44,,,,,,,
16006.34,0.00128,38.03,,,,,,,
16006.36,0.00126,35.12,,,,,,,
16006.39,0.00123,32.14,,,,,,,
16006.41,0.0012,29.07,,,,,,,
16006.44,0.00118,25.95,,,,,,,
16006.47,0.00115,22.65,,,,,,,
16006.49,0.00113,19.67,,,,,,,
16006.52,0.0011,16.31,,,,,,,
16006.55,0.00108,13.68,,,,,,,
16006.57,0.00105,11.08,,,,,,,
16006.59,0.00103,8.42,,,,,,,
16006.62,0.001,5.83,,,,,,,
16006.64,0.00097,3.15,,,,,,,
16006.67,0.00095,0.45,,,,,,,
16006.7,0.00092,-2.11,,,,,,,
16006.72,0.0009,-4.72,,,,,,,
16006.75,0.00087,-7.23,,,,,,,
16006.78,0.00085,-9.96,,,,,,,
16006.81,0.00082,-12.62,,,,,,,
16006.85,0.0008,-15.06,,,,,,,
16006.94,0.00077,-16.36,,,,,,,
16007.0,0.00075,-18.7,,,,,,,
16007.05,0.00072,-21.28,,,,,,,
16007.09,0.0007,-24.11,,,,,,,
16007.12,0.00067,-26.68,,,,,,,
16007.15,0.00065,-29.29,,,,,,,
16007.18,0.00062,-31.55,,,,,,,
16007.2,0.0006,-34.08,,,,,,,
16007.23,0.00057,-36.98,,,,,,,
16007.25,0.00054,-39.8,,,,,,,
16007.27,0.00052,-42.42,,,,,,,
16007.29,0.00049,-45.51,,,,,,,
16007.31,0.00047,-48.75,,,,,,,
16007.33,0.00044,-51.67,,,,,,,
16007.34,0.00042,-54.59,,,,,,,
16007.36,0.00039,-57.39,,,,,,,
16007.38,0.00036,-60.44,,,,,,,
16007.39,0.00034,-63.1,,,,,,,
16007.41,0.00031,-65.78,,,,,,,
16007.43,0.00029,-68.6,,,,,,,
16007.44,0.00026,-71.06,,,,,,,
16007.45,0.00024,-73.38,,,,,,,
16007.47,0.00021,-75.72,,,,,,,
16007.48,0.00019,-77.85,,,,,,,
16007.5,0.00016,-80.12,,,,,,,
16007.51,0.00013,-82.53,,,,,,,
16007.53,0.00011,-84.7,,,,,,,
16007.55,8e-05,-86.85,,,,,,,
16007.57,6e-05,-88.94,,,,,,,
16007.59,3e-05,-91.01,,,,,,,
16007.6,1e-05,-92.71,,,,,,,
16007.62,-2e-05,-94.52,,,,,,,
16007.64,-5e-05,-96.06,,,,,,,
16007.67,-7e-05,-97.89,,,,,,,
16007.69,-0.0001,-99.49,,,,,,,
16007.72,-0.00012,-101.01,,,,,,,
16007.74,-0.00015,-102.4,,,,,,,
16007.76,-0.00017,-103.7,,,,,,,
16007.79,-0.0002,-105.08,,,,,,,
16007.81,-0.00022,-106.19,,,,,,,
16007.83,-0.00025,-107.35,,,,,,,
16007.86,-0.00028,-108.53,,,,,,,
16007.88,-0.0003,-109.57,,,,,,,
16007.91,-0.00033,-110.57,,,,,,,
16007.93,-0.00035,-111.71,,,,,,,
16007.96,-0.00038,-112.88,,,,,,,
16008.0,-0.0004,-114.26,,,,,,,
16008.04,-0.00043,-116.43,,,,,,,
16008.07,-0.00045,-118.1,,,,,,,
16008.1,-0.00048,-119.73,,,,,,,
16008.12,-0.0005,-121.48,,,,,,,
16008.14,-0.00053,-123.05,,,,,,,
16008.17,-0.00056,-124.61,,,,,,,
16008.19,-0.00058,-126.16,,,,,,,
16008.21,-0.00061,-127.82,,,,,,,
16008.23,-0.00063,-129.17,,,,,,,
16008.26,-0.00066,-130.56,,,,,,,
16008.28,-0.00068,-131.93,,,,,,,
16008.3,-0.00071,-133.17,,,,,,,
16008.33,-0.00073,-134.41,,,,,,,
16008.36,-0.00076,-135.77,,,,,,,
16008.38,-0.00078,-136.8,,,,,,,
16008.4,-0.00081,-137.69,,,,,,,
16008.42,-0.00084,-138.56,,,,,,,
16008.44,-0.00086,-139.41,,,,,,,
16008.47,-0.00089,-140.25,,,,,,,
16008.5,-0.00091,-141.12,,,,,,,
16008.53,-0.00094,-141.95,,,,,,,
16008.55,-0.00096,-142.61,,,,,,,
16008.58,-0.00099,-143.46,,,,,,,
16008.61,-0.00102,-144.37,,,,,,,
16008.64,-0.00104,-145.24,,,,,,,
16008.66,-0.00107,-146.29,,,,,,,
16008.69,-0.00109,-147.27,,,,,,,
16008.72,-0.00112,-148.36,,,,,,,
16008.74,-0.00114,-149.33,,,,,,,
16008.77,-0.00117,-150.36,,,,,,,
16008.79,-0.00119,-151.33,,,,,,,
16008.82,-0.00122,-152.32,,,,,,,
16008.84,-0.00125,-153.33,,,,,,,
16008.87,-0.00127,-154.39,,,,,,,
16008.9,-0.0013,-155.34,,,,,,,
16008.92,-0.00132,-156.28,,,,,,,
16008.95,-0.00135,-157.13,,,,,,,
16008.97,-0.00137,-157.95,,,,,,,
16008.99,-0.0014,-158.71,,,,,,,
16009.01,-0.00142,-159.47,,,,,,,
16009.03,-0.00145,-160.13,,,,,,,
16009.06,-0.00147,-160.83,,,,,,,
16009.08,-0.0015,-161.44,,,,,,,
16009.1,-0.00153,-161.85,,,,,,,
16009.13,-0.00155,-162.22,,,,,,,
16009.16,-0.00158,-162.6,,,,,,,
16009.19,-0.0016,-162.96,,,,,,,
16009.22,-0.00163,-163.37,,,,,,,
16009.24,-0.00165,-163.81,,,,,,,
16009.27,-0.00168,-164.26,,,,,,,
16009.29,-0.0017,-164.72,,,,,,,
16009.32,-0.00173,-165.24,,,,,,,
16009.34,-0.00176,-165.68,,,,,,,
16009.37,-0.00178,-166.15,,,,,,,
16009.39,-0.00181,-166.56,,,,,,,
16009.42,-0.00183,-166.94,,,,,,,
16009.44,-0.00186,-167.26,,,,,,,
16009.47,-0.00188,-167.48,,,,,,,
16009.49,-0.00191,-167.66,,,,,,,
16009.52,-0.00194,-167.8,,,,,,,
16009.55,-0.00196,-167.56,,,,,,,
16009.58,-0.00199,-166.25,,,,,,,
16009.71,-0.00196,-145.95,,,,,,,
16009.73,-0.00194,-141.0,,,,,,,
16009.75,-0.00191,-136.4,,,,,,,
16009.77,-0.00188,-131.63,,,,,,,
16009.78,-0.00186,-127.43,,,,,,,
16009.8,-0.00183,-123.51,,,,,,,
16009.82,-0.00181,-119.59,,,,,,,
16009.83,-0.00179,-116.5,,,,,,,
16009.84,-0.00178,-115.38,,,,,,,
16009.85,-0.00176,-111.44,,,,,,,
16009.87,-0.00173,-107.49,,,,,,,
16009.89,-0.00171,-103.88,,,,,,,
16009.91,-0.00168,-100.35,,,,,,,
16009.93,-0.00165,-96.72,,,,,,,
16009.96,-0.00163,-92.82,,,,,,,
16009.98,-0.0016,-89.0,,,,,,,
16010.01,-0.00158,-85.13,,,,,,,
16010.04,-0.00155,-80.79,,,,,,,
16010.07,-0.00153,-76.81,,,,,,,
16010.09,-0.0015,-73.81,,,,,,,
16010.12,-0.00148,-70.73,,,,,,,
16010.15,-0.00145,-66.62,,,,,,,
16010.18,-0.00143,-62.88,,,,,,,
16010.2,-0.0014,-59.38,,,,,,,
16010.23,-0.00138,-55.71,,,,,,,
16010.26,-0.00135,-52.65,,,,,,,
16010.28,-0.00132,-49.02,,,,,,,
16010.31,-0.0013,-45.5,,,,,,,
16010.34,-0.00127,-42.21,,,,,,,
16010.36,-0.00125,-39.35,,,,,,,
16010.38,-0.00122,-36.41,,,,,,,
16010.41,-0.0012,-33.28,,,,,,,
16010.44,-0.00117,-29.72,,,,,,,
16010.47,-0.00115,-26.2,,,,,,,
16010.5,-0.00112,-22.77,,,,,,,
16010.53,-0.00109,-19.52,,,,,,,
16010.55,-0.00107,-16.31,,,,,,,
16010.58,-0.00104,-13.31,,,,,,,
16010.6,-0.00102,-10.55,,,,,,,
16010.63,-0.00099,-7.64,,,,,,,
16010.65,-0.00097,-4.7,,,,,,,
16010.68,-0.00094,-1.83,,,,,,,
16010.71,-0.00092,1.31,,,,,,,
16010.73,-0.00089,4.16,,,,,,,
16010.76,-0.00087,6.69,,,,,,,
16010.78,-0.00084,9.17,,,,,,,
16010.81,-0.00081,12.01,,,,,,,
16010.84,-0.00079,14.6,,,,,,,
16010.86,-0.00076,17.23,,,,,,,
16010.89,-0.00074,19.81,,,,,,,
16010.92,-0.00071,22.18,,,,,,,
16010.95,-0.00069,24.22,,,,,,,
16011.0,-0.00066,26.38,,,,,,,
16011.04,-0.00064,28.62,,,,,,,
16011.08,-0.00061,31.08,,,,,,,
16011.12,-0.00059,33.52,,,,,,,
16011.16,-0.00056,36.63,,,,,,,
16011.18,-0.00054,39.73,,,,,,,
16011.2,-0.00051,42.69,,,,,,,
16011.22,-0.00048,45.46,,,,,,,
16011.24,-0.00046,47.85,,,,,,,
16011.26,-0.00043,50.31,,,,,,,
16011.28,-0.00041,52.59,,,,,,,
16011.3,-0.00038,54.78,,,,,,,
16011.33,-0.00036,57.0,,,,,,,
16011.36,-0.00033,59.26,,,,,,,
16011.39,-0.00031,61.42,,,,,,,
16011.42,-0.00028,63.42,,,,,,,
16011.46,-0.00026,65.54,,,,,,,
16011.48,-0.00023,67.43,,,,,,,
21203.21,0.00194,137.32,,,,,,,
21203.24,0.00196,137.47,,,,,,,
21203.27,0.00199,136.79,,,,,,,
21203.38,0.00196,123.42,,,,,,,
21203.4,0.00194,119.12,,,,,,,
21203.42,0.00191,115.12,,,,,,,
21203.44,0.00189,111.45,,,,,,,
21203.46,0.00186,107.83,,,,,,,
21203.48,0.00184,104.38,,,,,,,
21203.49,0.00181,101.1,,,,,,,
21203.52,0.00178,97.64,,,,,,,
21203.54,0.00176,94.37,,,,,,,
21203.55,0.00173,91.28,,,,,,,
21203.58,0.00171,87.67,,,,,,,
21203.61,0.00168,84.25,,,,,,,
21203.63,0.00165,80.92,,,,,,,
21203.66,0.00163,77.76,,,,,,,
21203.68,0.0016,74.52,,,,,,,
21203.71,0.00158,71.65,,,,,,,
21203.73,0.00155,68.92,,,,,,,
21203.76,0.00153,65.98,,,,,,,
21203.79,0.0015,63.05,,,,,,,
21203.81,0.00148,60.18,,,,,,,
21203.84,0.00145,57.69,,,,,,,
21203.87,0.00143,54.98,,,,,,,
21203.89,0.0014,52.24,,,,,,,
21203.92,0.00137,49.7,,,,,,,
21203.94,0.00135,47.07,,,,,,,
21203.97,0.00132,44.26,,,,,,,
21204.0,0.0013,41.36,,,,,,,
21204.03,0.00127,38.71,,,,,,,
21204.05,0.00125,36.39,,,,,,,
21204.08,0.00122,33.57,,,,,,,
21204.11,0.0012,30.81,,,,,,,
21204.14,0.00117,27.96,,,,,,,
21204.16,0.00115,25.15,,,,,,,
21204.19,0.00112,22.48,,,,,,,
21204.22,0.00109,19.74,,,,,,,
21204.24,0.00107,17.43,,,,,,,
21204.27,0.00104,14.87,,,,,,,
21204.3,0.00102,12.08,,,,,,,
21204.32,0.00099,9.56,,,,,,,
21204.35,0.00097,6.95,,,,,,,
21204.38,0.00094,4.6,,,,,,,
21204.4,0.00092,2.18,,,,,,,
21204.43,0.00089,-0.26,,,,,,,
21204.46,0.00087,-2.93,,,,,,,
21204.49,0.00084,-5.52,,,,,,,
21204.51,0.00082,-7.64,,,,,,,
21204.54,0.00079,-9.74,,,,,,,
21204.56,0.00076,-11.74,,,,,,,
21204.61,0.00074,-13.74,,,,,,,
21204.73,0.00071,-15.97,,,,,,,
21204.77,0.00069,-18.55,,,,,,,
21204.81,0.00066,-20.87,,,,,,,
21204.84,0.00064,-23.11,,,,,,,
21204.87,0.00061,-25.53,,,,,,,
21204.9,0.00059,-28.25,,,,,,,
21204.93,0.00056,-30.76,,,,,,,
21204.95,0.00054,-33.02,,,,,,,
21204.98,0.00051,-35.35,,,,,,,
21205.0,0.00049,-38.01,,,,,,,
21205.02,0.00046,-40.78,,,,,,,
21205.05,0.00044,-43.65,,,,,,,
21205.06,0.00041,-46.55,,,,,,,
21205.08,0.00038,-49.25,,,,,,,
21205.09,0.00036,-51.55,,,,,,,
21205.11,0.00033,-53.66,,,,,,,
21205.13,0.00031,-55.74,,,,,,,
21205.14,0.00028,-58.03,,,,,,,
21205.16,0.00026,-60.19,,,,,,,
21205.17,0.00023,-62.34,,,,,,,
21205.18,0.00021,-64.27,,,,,,,
21205.2,0.00018,-66.17,,,,,,,
21205.21,0.00015,-68.15,,,,,,,
21205.23,0.00013,-69.95,,,,,,,
21205.24,0.0001,-71.73,,,,,,,
21205.25,8e-05,-73.43,,,,,,,
21205.27,5e-05,-74.98,,,,,,,
21205.29,2e-05,-76.51,,,,,,,
21205.3,-0.0,-78.03,,,,,,,
21205.32,-3e-05,-79.43,,,,,,,
21205.34,-5e-05,-80.67,,,,,,,
21205.36,-8e-05,-81.89,,,,,,,
21205.38,-0.00011,-83.03,,,,,,,
21205.4,-0.00013,-83.96,,,,,,,
21205.43,-0.00016,-84.92,,,,,,,
21205.45,-0.00018,-85.77,,,,,,,
21205.48,-0.00021,-86.64,,,,,,,
21205.51,-0.00023,-87.5,,,,,,,
21205.54,-0.00026,-88.37,,,,,,,
21205.57,-0.00029,-89.59,,,,,,,
21205.61,-0.00031,-90.84,,,,,,,
21205.64,-0.00034,-92.57,,,,,,,
21205.67,-0.00036,-94.2,,,,,,,
21205.7,-0.00039,-95.73,,,,,,,
21205.72,-0.00041,-97.12,,,,,,,
21205.74,-0.00044,-98.53,,,,,,,
21205.76,-0.00046,-99.83,,,,,,,
21205.79,-0.00049,-101.03,,,,,,,
21205.81,-0.00051,-102.24,,,,,,,
21205.83,-0.00054,-103.35,,,,,,,
21205.85,-0.00057,-104.48,,,,,,,
21205.88,-0.00059,-105.59,,,,,,,
21205.9,-0.00062,-106.51,,,,,,,
21205.92,-0.00064,-107.3,,,,,,,
21205.94,-0.00067,-108.0,,,,,,,
21205.97,-0.00069,-108.6,,,,,,,
21205.99,-0.00072,-109.23,,,,,,,
21206.02,-0.00074,-109.88,,,,,,,
21206.04,-0.00077,-110.49,,,,,,,
21206.07,-0.00079,-111.08,,,,,,,
21206.1,-0.00082,-111.75,,,,,,,
21206.13,-0.00085,-112.49,,,,,,,
21206.16,-0.00087,-113.19,,,,,,,
21206.18,-0.0009,-113.97,,,,,,,
21206.21,-0.00092,-114.68,,,,,,,
21206.23,-0.00095,-115.42,,,,,,,
21206.25,-0.00097,-116.23,,,,,,,
21206.28,-0.001,-116.94,,,,,,,
21206.3,-0.00102,-117.68,,,,,,,
21206.33,-0.00105,-118.46,,,,,,,
21206.36,-0.00107,-119.32,,,,,,,
21206.39,-0.0011,-119.98,,,,,,,
21206.41,-0.00113,-120.72,,,,,,,
21206.43,-0.00115,-121.42,,,,,,,
21206.46,-0.00118,-122.06,,,,,,,
21206.48,-0.0012,-122.76,,,,,,,
21206.5,-0.00123,-123.39,,,,,,,
21206.53,-0.00125,-124.01,,,,,,,
21206.56,-0.00128,-124.63,,,,,,,
21206.58,-0.0013,-125.21,,,,,,,
21206.61,-0.00133,-125.75,,,,,,,
21206.63,-0.00135,-126.34,,,,,,,
21206.66,-0.00138,-126.89,,,,,,,
21206.69,-0.00141,-127.64,,,,,,,
21206.72,-0.00143,-128.28,,,,,,,
21206.74,-0.00146,-128.91,,,,,,,
21206.77,-0.00148,-129.54,,,,,,,
21206.79,-0.00151,-130.3,,,,,,,
21206.82,-0.00153,-130.96,,,,,,,
21206.84,-0.00156,-131.65,,,,,,,
21206.87,-0.00158,-132.4,,,,,,,
21206.89,-0.00161,-133.16,,,,,,,
21206.92,-0.00163,-133.94,,,,,,,
21206.95,-0.00166,-134.73,,,,,,,
21206.98,-0.00169,-135.63,,,,,,,
21207.01,-0.00171,-136.55,,,,,,,
21207.03,-0.00174,-137.49,,,,,,,
21207.06,-0.00176,-138.57,,,,,,,
21207.09,-0.00179,-139.8,,,,,,,
21207.13,-0.00181,-141.11,,,,,,,
21207.15,-0.00184,-142.3,,,,,,,
21207.17,-0.00186,-143.43,,,,,,,
21207.2,-0.00189,-144.82,,,,,,,
21207.23,-0.00191,-146.17,,,,,,,
21207.26,-0.00194,-147.13,,,,,,,
21207.41,-0.00191,-133.99,,,,,,,
21207.44,-0.00189,-129.42,,,,,,,
21207.46,-0.00186,-124.84,,,,,,,
21207.49,-0.00184,-120.39,,,,,,,
21207.51,-0.00181,-116.39,,,,,,,
21207.53,-0.00179,-112.29,,,,,,,
21207.55,-0.00176,-108.4,,,,,,,
21207.57,-0.00174,-104.18,,,,,,,
21207.6,-0.00171,-100.57,,,,,,,
21207.62,-0.00168,-97.31,,,,,,,
21207.64,-0.00166,-93.68,,,,,,,
21207.67,-0.00163,-89.93,,,,,,,
21207.69,-0.00161,-86.63,,,,,,,
21207.72,-0.00158,-82.75,,,,,,,
21207.75,-0.00156,-78.74,,,,,,,
21207.78,-0.00153,-74.55,,,,,,,
21207.81,-0.00151,-70.76,,,,,,,
21207.83,-0.00148,-67.63,,,,,,,
21207.86,-0.00145,-64.28,,,,,,,
21207.88,-0.00143,-61.02,,,,,,,
21207.91,-0.0014,-57.78,,,,,,,
21207.93,-0.00138,-54.88,,,,,,,
21207.95,-0.00135,-52.04,,,,,,,
21207.98,-0.00133,-49.04,,,,,,,
21208.0,-0.0013,-46.1,,,,,,,
21208.03,-0.00127,-43.52,,,,,,,
21208.05,-0.00125,-41.09,,,,,,,
21208.07,-0.00122,-38.7,,,,,,,
21208.1,-0.0012,-36.16,,,,,,,
21208.12,-0.00117,-33.83,,,,,,,
21208.15,-0.00115,-31.42,,,,,,,
21208.18,-0.00112,-29.08,,,,,,,
21208.2,-0.0011,-26.62,,,,,,,
21208.23,-0.00107,-23.92,,,,,,,
21208.26,-0.00104,-21.52,,,,,,,
21208.29,-0.00102,-19.02,,,,,,,
21208.31,-0.00099,-16.67,,,,,,,
21208.34,-0.00097,-14.03,,,,,,,
21208.37,-0.00094,-11.5,,,,,,,
21208.4,-0.00092,-8.4,,,,,,,
21208.43,-0.00089,-5.65,,,,,,,
21208.46,-0.00087,-3.4,,,,,,,
21208.48,-0.00084,-1.07,,,,,,,
21208.51,-0.00082,1.32,,,,,,,
21208.53,-0.00079,3.66,,,,,,,
21208.55,-0.00077,5.95,,,,,,,
21208.58,-0.00074,8.38,,,,,,,
21208.61,-0.00072,10.58,,,,,,,
21208.63,-0.00069,12.62,,,,,,,
21208.66,-0.00067,14.9,,,,,,,
21208.68,-0.00064,17.12,,,,,,,
21208.71,-0.00061,19.29,,,,,,,
21208.74,-0.00059,21.14,,,,,,,
21208.77,-0.00056,22.83,,,,,,,
21208.82,-0.00054,24.66,,,,,,,
21208.87,-0.00051,25.96,,,,,,,
21208.91,-0.00049,27.05,,,,,,,
21208.96,-0.00046,29.1,,,,,,,
21208.99,-0.00044,31.18,,,,,,,
21209.02,-0.00041,33.17,,,,,,,
21209.05,-0.00039,35.37,,,,,,,
21209.09,-0.00036,37.7,,,,,,,
21209.11,-0.00034,39.64,,,,,,,
21209.13,-0.00031,41.99,,,,,,,
21209.15,-0.00028,44.87,,,,,,,
21209.16,-0.00026,47.28,,,,,,,
21209.18,-0.00023,49.52,,,,,,,
21209.19,-0.0002,51.58,,,,,,,
21209.21,-0.00018,53.55,,,,,,,
21209.23,-0.00015,55.54,,,,,,,
21209.24,-0.00013,57.1,,,,,,,
21209.26,-0.0001,58.54,,,,,,,
21209.29,-8e-05,59.84,,,,,,,
21209.32,-5e-05,61.03,,,,,,,
21209.35,-3e-05,62.18,,,,,,,
21209.39,-0.0,63.19,,,,,,,
21209.42,2e-05,64.51,,,,,,,
21209.45,5e-05,65.83,,,,,,,
21209.48,7e-05,67.32,,,,,,,
21209.51,0.0001,68.92,,,,,,,
21209.53,0.00012,70.47,,,,,,,
21209.55,0.00015,72.35,,,,,,,
21209.57,0.00018,74.03,,,,,,,
21209.59,0.0002,75.93,,,,,,,
21209.61,0.00023,77.83,,,,,,,
21209.62,0.00025,79.57,,,,,,,
21209.64,0.00028,81.16,,,,,,,
21209.65,0.00031,82.79,,,,,,,
21209.67,0.00033,84.3,,,,,,,
21209.68,0.00036,85.81,,,,,,,
21209.7,0.00038,87.31,,,,,,,
21209.72,0.00041,88.7,,,,,,,
21209.74,0.00043,89.98,,,,,,,
21209.76,0.00046,91.14,,,,,,,
21209.78,0.00049,92.2,,,,,,,
21209.8,0.00051,93.23,,,,,,,
21209.82,0.00054,94.09,,,,,,,
21209.83,0.00054,94.31,,,,,,,
21209.85,0.00056,94.88,,,,,,,
21209.88,0.00059,95.69,,,,,,,
21209.9,0.00061,96.48,,,,,,,
21209.93,0.00064,97.42,,,,,,,
21209.96,0.00066,98.23,,,,,,,
21209.98,0.00069,99.21,,,,,,,
21210.01,0.00072,100.22,,,,,,,
21210.04,0.00074,101.23,,,,,,,
21210.07,0.00077,102.36,,,,,,,
21210.09,0.00079,103.41,,,,,,,
21210.11,0.00082,104.43,,,,,,,
21210.14,0.00084,105.39,,,,,,,
21210.16,0.00087,106.45,,,,,,,
21210.19,0.00089,107.54,,,,,,,
21210.22,0.00092,108.71,,,,,,,
21210.24,0.00094,109.75,,,,,,,
21210.27,0.00097,110.72,,,,,,,
21210.29,0.00099,111.74,,,,,,,
21210.32,0.00102,112.7,,,,,,,
21210.34,0.00105,113.56,,,,,,,
21210.37,0.00107,114.52,,,,,,,
21210.39,0.0011,115.41,,,,,,,
21210.42,0.00112,116.28,,,,,,,
21210.44,0.00115,117.13,,,,,,,
21210.47,0.00117,118.05,,,,,,,
21210.5,0.0012,118.99,,,,,,,
21210.52,0.00122,120.01,,,,,,,
21210.55,0.00125,120.94,,,,,,,
21210.57,0.00128,121.77,,,,,,,
21210.59,0.0013,122.56,,,,,,,
21210.62,0.00133,123.3,,,,,,,
21210.64,0.00135,123.93,,,,,,,
21210.66,0.00138,124.73,,,,,,,
21210.69,0.0014,125.44,,,,,,,
21210.71,0.00143,126.02,,,,,,,
21210.74,0.00145,126.7,,,,,,,
21210.76,0.00148,127.26,,,,,,,
21210.79,0.00151,127.71,,,,,,,
21210.81,0.00153,128.17,,,,,,,
21210.84,0.00156,128.7,,,,,,,
21210.87,0.00158,129.11,,,,,,,
21210.89,0.00161,129.64,,,,,,,
21210.92,0.00163,130.18,,,,,,,
21210.94,0.00166,130.59,,,,,,,
21210.96,0.00168,131.04,,,,,,,
21210.99,0.00171,131.49,,,,,,,
21211.01,0.00173,131.86,,,,,,,
21211.04,0.00176,132.2,,,,,,,
21211.06,0.00178,132.59,,,,,,,
21211.09,0.00181,132.98,,,,,,,
21211.12,0.00184,133.35,,,,,,,
21211.14,0.00186,133.73,,,,,,,
21211.17,0.00189,134.12,,,,,,,
21211.2,0.00191,134.59,,,,,,,
