time,strain,stress,temperature,type,strain_rate,max_strain,title,youngs,poissons
0.0,3e-05,8.23,950,fatigue,0.001,0.00204,B-1,144000,0.3
0.05,5e-05,12.6,,,,,,,
0.09,8e-05,16.98,,,,,,,
0.13,0.0001,21.13,,,,,,,
0.16,0.00013,24.85,,,,,,,
0.19,0.00015,28.52,,,,,,,
0.21,0.00018,31.89,,,,,,,
0.24,0.0002,35.26,,,,,,,
0.27,0.00023,38.53,,,,,,,
0.31,0.00025,42.23,,,,,,,
0.35,0.00028,45.55,,,,,,,
0.4,0.0003,49.25,,,,,,,
0.45,0.00033,53.11,,,,,,,
0.48,0.00036,57.08,,,,,,,
0.51,0.00038,60.84,,,,,,,
0.54,0.00041,64.8,,,,,,,
0.56,0.00043,68.54,,,,,,,
0.59,0.00046,72.17,,,,,,,
0.61,0.00048,75.63,,,,,,,
0.63,0.00051,79.27,,,,,,,
0.66,0.00053,82.85,,,,,,,
0.68,0.00056,86.02,,,,,,,
0.7,0.00059,89.6,,,,,,,
0.71,0.0006,91.59,,,,,,,
0.72,0.00061,92.99,,,,,,,
0.74,0.00064,96.11,,,,,,,
0.77,0.00066,99.33,,,,,,,
0.8,0.00069,102.74,,,,,,,
0.82,0.00071,105.44,,,,,,,
0.85,0.00074,108.2,,,,,,,
0.9,0.00076,110.23,,,,,,,
1.1,0.00074,101.62,,,,,,,
1.14,0.00071,97.15,,,,,,,
1.18,0.00069,93.16,,,,,,,
1.22,0.00066,89.13,,,,,,,
1.26,0.00064,85.24,,,,,,,
1.29,0.00061,81.62,,,,,,,
1.32,0.00058,78.01,,,,,,,
1.35,0.00056,74.26,,,,,,,
1.38,0.00053,70.81,,,,,,,
1.41,0.00051,67.23,,,,,,,
1.45,0.00048,63.74,,,,,,,
1.48,0.00046,60.37,,,,,,,
1.51,0.00043,56.84,,,,,,,
1.54,0.00041,53.3,,,,,,,
1.57,0.00038,49.89,,,,,,,
1.6,0.00036,46.68,,,,,,,
1.64,0.00033,43.08,,,,,,,
1.68,0.00031,39.26,,,,,,,
1.71,0.00029,36.03,,,,,,,
1.72,0.00028,35.3,,,,,,,
1.76,0.00026,31.45,,,,,,,
1.79,0.00023,27.53,,,,,,,
1.83,0.0002,23.36,,,,,,,
1.86,0.00018,19.67,,,,,,,
1.89,0.00015,15.61,,,,,,,
1.91,0.00013,12.19,,,,,,,
1.95,0.0001,8.46,,,,,,,
1.98,8e-05,4.76,,,,,,,
2.0,5e-05,0.89,,,,,,,
2.02,3e-05,-2.48,,,,,,,
2.05,0.0,-5.94,,,,,,,
2.09,-3e-05,-9.41,,,,,,,
2.11,-5e-05,-12.58,,,,,,,
2.14,-8e-05,-15.63,,,,,,,
2.18,-0.0001,-18.52,,,,,,,
2.23,-0.00013,-21.48,,,,,,,
2.28,-0.00015,-24.85,,,,,,,
2.34,-0.00018,-28.69,,,,,,,
2.38,-0.0002,-32.5,,,,,,,
2.41,-0.00023,-36.6,,,,,,,
2.44,-0.00025,-40.27,,,,,,,
2.47,-0.00028,-44.32,,,,,,,
2.48,-0.0003,-47.98,,,,,,,
2.51,-0.00033,-51.48,,,,,,,
2.53,-0.00035,-55.1,,,,,,,
2.55,-0.00038,-58.46,,,,,,,
2.57,-0.0004,-61.87,,,,,,,
2.59,-0.00043,-65.17,,,,,,,
2.61,-0.00046,-68.56,,,,,,,
2.63,-0.00048,-71.69,,,,,,,
2.66,-0.00051,-74.92,,,,,,,
2.69,-0.00053,-78.3,,,,,,,
2.71,-0.00056,-81.25,,,,,,,
2.71,-0.00056,-81.45,,,,,,,
2.74,-0.00058,-85.11,,,,,,,
2.78,-0.00061,-88.51,,,,,,,
2.81,-0.00064,-92.11,,,,,,,
2.85,-0.00066,-94.89,,,,,,,
2.91,-0.00069,-97.33,,,,,,,
3.12,-0.00066,-91.43,,,,,,,
3.19,-0.00064,-87.71,,,,,,,
3.24,-0.00061,-84.09,,,,,,,
3.29,-0.00058,-80.25,,,,,,,
3.34,-0.00056,-76.48,,,,,,,
3.38,-0.00053,-73.06,,,,,,,
3.41,-0.00051,-69.41,,,,,,,
3.45,-0.00048,-65.71,,,,,,,
3.48,-0.00046,-61.94,,,,,,,
3.52,-0.00043,-57.99,,,,,,,
3.55,-0.00041,-54.45,,,,,,,
3.58,-0.00038,-50.62,,,,,,,
3.6,-0.00036,-47.13,,,,,,,
3.63,-0.00033,-43.41,,,,,,,
3.66,-0.00031,-39.52,,,,,,,
3.7,-0.00028,-35.97,,,,,,,
3.71,-0.00026,-33.55,,,,,,,
3.72,-0.00026,-32.16,,,,,,,
3.75,-0.00023,-28.69,,,,,,,
3.78,-0.0002,-24.85,,,,,,,
3.8,-0.00018,-21.39,,,,,,,
3.84,-0.00015,-17.85,,,,,,,
3.87,-0.00013,-13.89,,,,,,,
3.9,-0.0001,-10.2,,,,,,,
3.93,-8e-05,-6.47,,,,,,,
3.96,-5e-05,-2.6,,,,,,,
3.99,-3e-05,0.9,,,,,,,
4.02,-0.0,4.18,,,,,,,
4.05,2e-05,7.85,,,,,,,
4.08,5e-05,11.34,,,,,,,
4.1,7e-05,15.13,,,,,,,
4.13,0.0001,18.48,,,,,,,
4.16,0.00013,22.06,,,,,,,
4.19,0.00015,25.53,,,,,,,
4.22,0.00018,28.93,,,,,,,
4.24,0.0002,32.28,,,,,,,
4.27,0.00023,35.45,,,,,,,
4.3,0.00025,38.3,,,,,,,
4.34,0.00028,41.53,,,,,,,
4.38,0.0003,44.94,,,,,,,
4.43,0.00033,48.45,,,,,,,
4.48,0.00035,51.96,,,,,,,
4.52,0.00038,55.6,,,,,,,
4.56,0.00041,59.99,,,,,,,
4.59,0.00043,64.19,,,,,,,
4.63,0.00046,68.02,,,,,,,
4.65,0.00048,71.75,,,,,,,
4.68,0.00051,75.61,,,,,,,
4.7,0.00053,79.57,,,,,,,
4.71,0.00054,80.45,,,,,,,
4.73,0.00056,82.86,,,,,,,
4.75,0.00058,86.65,,,,,,,
4.77,0.00061,90.05,,,,,,,
4.8,0.00064,93.42,,,,,,,
4.82,0.00066,96.59,,,,,,,
4.85,0.00069,100.21,,,,,,,
4.88,0.00071,103.6,,,,,,,
4.91,0.00074,106.88,,,,,,,
4.95,0.00076,110.01,,,,,,,
4.98,0.00079,112.72,,,,,,,
5.21,0.00076,103.54,,,,,,,
5.25,0.00074,99.16,,,,,,,
5.29,0.00071,95.05,,,,,,,
5.32,0.00069,91.44,,,,,,,
5.36,0.00066,87.47,,,,,,,
5.4,0.00064,83.43,,,,,,,
5.43,0.00061,79.87,,,,,,,
5.46,0.00058,75.72,,,,,,,
5.5,0.00056,72.16,,,,,,,
5.53,0.00053,68.64,,,,,,,
5.57,0.00051,65.26,,,,,,,
5.61,0.00048,61.58,,,,,,,
5.65,0.00046,57.93,,,,,,,
5.69,0.00043,54.39,,,,,,,
5.71,0.00042,52.0,,,,,,,
5.73,0.00041,50.6,,,,,,,
5.77,0.00038,46.87,,,,,,,
5.8,0.00036,43.17,,,,,,,
5.84,0.00033,39.68,,,,,,,
5.87,0.0003,35.96,,,,,,,
5.9,0.00028,32.58,,,,,,,
5.93,0.00025,29.0,,,,,,,
5.96,0.00023,25.17,,,,,,,
5.99,0.0002,21.57,,,,,,,
6.02,0.00018,17.61,,,,,,,
6.05,0.00015,14.11,,,,,,,
6.09,0.00013,10.5,,,,,,,
6.12,0.0001,6.93,,,,,,,
6.14,8e-05,3.27,,,,,,,
6.17,5e-05,-0.2,,,,,,,
6.2,3e-05,-3.86,,,,,,,
6.23,-0.0,-7.32,,,,,,,
6.27,-3e-05,-10.99,,,,,,,
6.3,-5e-05,-13.81,,,,,,,
6.34,-8e-05,-16.98,,,,,,,
6.4,-0.0001,-20.26,,,,,,,
6.45,-0.00013,-23.67,,,,,,,
6.5,-0.00015,-27.57,,,,,,,
6.55,-0.00018,-31.89,,,,,,,
6.58,-0.0002,-35.26,,,,,,,
6.6,-0.00023,-39.0,,,,,,,
6.63,-0.00025,-43.67,,,,,,,
6.66,-0.00028,-46.83,,,,,,,
6.68,-0.00031,-50.42,,,,,,,
6.7,-0.00033,-54.13,,,,,,,
6.71,-0.00034,-56.05,,,,,,,
6.72,-0.00036,-57.31,,,,,,,
6.74,-0.00038,-60.69,,,,,,,
6.77,-0.00041,-64.21,,,,,,,
6.8,-0.00043,-67.58,,,,,,,
6.82,-0.00046,-70.61,,,,,,,
6.84,-0.00048,-74.01,,,,,,,
6.88,-0.00051,-77.12,,,,,,,
6.91,-0.00053,-80.4,,,,,,,
6.94,-0.00056,-83.66,,,,,,,
6.97,-0.00059,-87.07,,,,,,,
7.0,-0.00061,-90.18,,,,,,,
7.04,-0.00064,-93.88,,,,,,,
7.07,-0.00066,-97.21,,,,,,,
7.1,-0.00069,-100.5,,,,,,,
7.14,-0.00071,-103.5,,,,,,,
7.17,-0.00074,-106.3,,,,,,,
7.23,-0.00076,-109.2,,,,,,,
7.29,-0.00079,-111.7,,,,,,,
7.57,-0.00076,-103.9,,,,,,,
7.62,-0.00074,-99.41,,,,,,,
7.66,-0.00071,-95.3,,,,,,,
7.69,-0.00069,-91.1,,,,,,,
7.71,-0.00067,-88.47,,,,,,,
7.72,-0.00066,-87.35,,,,,,,
7.75,-0.00064,-83.26,,,,,,,
7.78,-0.00061,-79.74,,,,,,,
7.8,-0.00058,-76.12,,,,,,,
7.84,-0.00056,-72.55,,,,,,,
7.87,-0.00053,-68.57,,,,,,,
7.89,-0.00051,-64.88,,,,,,,
7.91,-0.00048,-61.8,,,,,,,
7.95,-0.00046,-57.98,,,,,,,
7.97,-0.00043,-54.3,,,,,,,
8.0,-0.00041,-50.65,,,,,,,
8.02,-0.00038,-47.24,,,,,,,
8.05,-0.00036,-43.45,,,,,,,
8.09,-0.00033,-39.57,,,,,,,
8.11,-0.0003,-35.87,,,,,,,
8.14,-0.00028,-32.06,,,,,,,
18.2,-0.00023,-20.68,,,,,,,
18.23,-0.0002,-17.29,,,,,,,
18.26,-0.00018,-13.6,,,,,,,
18.29,-0.00015,-9.89,,,,,,,
18.32,-0.00013,-6.32,,,,,,,
18.35,-0.0001,-2.61,,,,,,,
18.38,-8e-05,1.17,,,,,,,
18.41,-5e-05,4.92,,,,,,,
18.44,-2e-05,8.48,,,,,,,
18.47,0.0,12.12,,,,,,,
18.49,3e-05,15.53,,,,,,,
18.52,5e-05,19.31,,,,,,,
18.55,8e-05,22.7,,,,,,,
18.58,0.0001,25.99,,,,,,,
18.6,0.00013,29.46,,,,,,,
18.63,0.00015,32.43,,,,,,,
18.66,0.00018,35.71,,,,,,,
18.69,0.0002,39.01,,,,,,,
18.71,0.00022,40.88,,,,,,,
18.73,0.00023,41.9,,,,,,,
18.77,0.00025,45.21,,,,,,,
18.8,0.00028,48.36,,,,,,,
18.85,0.0003,51.83,,,,,,,
18.9,0.00033,55.55,,,,,,,
18.95,0.00035,59.64,,,,,,,
18.98,0.00038,63.71,,,,,,,
19.01,0.00041,67.37,,,,,,,
19.04,0.00043,71.3,,,,,,,
19.06,0.00046,74.9,,,,,,,
19.09,0.00048,78.39,,,,,,,
19.11,0.00051,81.99,,,,,,,
19.14,0.00053,85.73,,,,,,,
19.16,0.00056,89.09,,,,,,,
19.19,0.00059,92.64,,,,,,,
19.21,0.00061,96.04,,,,,,,
19.23,0.00064,99.29,,,,,,,
19.26,0.00066,102.53,,,,,,,
19.28,0.00069,105.59,,,,,,,
19.3,0.00071,108.47,,,,,,,
19.34,0.00074,111.55,,,,,,,
19.37,0.00076,115.06,,,,,,,
19.4,0.00079,117.92,,,,,,,
19.43,0.00081,121.48,,,,,,,
19.47,0.00084,124.65,,,,,,,
19.5,0.00086,128.07,,,,,,,
19.53,0.00089,131.16,,,,,,,
19.56,0.00092,134.45,,,,,,,
19.59,0.00094,137.6,,,,,,,
19.63,0.00097,140.56,,,,,,,
19.66,0.00099,143.51,,,,,,,
19.68,0.00102,146.29,,,,,,,
19.71,0.00104,148.19,,,,,,,
19.72,0.00104,148.5,,,,,,,
19.77,0.00107,150.0,,,,,,,
20.06,0.00104,139.79,,,,,,,
20.12,0.00102,134.81,,,,,,,
20.15,0.00099,130.39,,,,,,,
20.19,0.00097,126.03,,,,,,,
20.22,0.00094,122.07,,,,,,,
20.25,0.00092,118.07,,,,,,,
20.28,0.00089,114.17,,,,,,,
20.3,0.00087,110.57,,,,,,,
20.34,0.00084,106.77,,,,,,,
20.36,0.00081,103.02,,,,,,,
20.39,0.00079,99.29,,,,,,,
20.42,0.00076,95.34,,,,,,,
20.45,0.00074,91.69,,,,,,,
20.48,0.00071,87.91,,,,,,,
20.51,0.00069,84.4,,,,,,,
20.53,0.00066,80.45,,,,,,,
20.56,0.00064,76.75,,,,,,,
20.59,0.00061,73.2,,,,,,,
20.62,0.00058,69.28,,,,,,,
20.65,0.00056,65.57,,,,,,,
20.68,0.00053,61.67,,,,,,,
20.71,0.00051,58.04,,,,,,,
20.71,0.00051,57.37,,,,,,,
20.74,0.00048,54.09,,,,,,,
20.77,0.00046,50.17,,,,,,,
20.8,0.00043,46.57,,,,,,,
20.82,0.00041,43.02,,,,,,,
20.85,0.00038,39.05,,,,,,,
20.88,0.00036,35.8,,,,,,,
20.91,0.00033,32.22,,,,,,,
20.94,0.0003,28.46,,,,,,,
20.96,0.00028,24.88,,,,,,,
20.99,0.00025,21.39,,,,,,,
21.02,0.00023,17.85,,,,,,,
21.05,0.0002,14.48,,,,,,,
21.08,0.00018,11.12,,,,,,,
21.11,0.00015,7.44,,,,,,,
21.13,0.00013,4.02,,,,,,,
21.16,0.0001,0.58,,,,,,,
21.2,7e-05,-2.85,,,,,,,
21.23,5e-05,-6.35,,,,,,,
21.25,2e-05,-9.53,,,,,,,
21.28,-0.0,-12.95,,,,,,,
21.3,-3e-05,-16.03,,,,,,,
21.34,-5e-05,-18.67,,,,,,,
21.39,-8e-05,-22.05,,,,,,,
21.45,-0.0001,-25.07,,,,,,,
21.48,-0.00013,-27.92,,,,,,,
21.54,-0.00015,-31.69,,,,,,,
21.58,-0.00018,-35.64,,,,,,,
21.61,-0.00021,-39.11,,,,,,,
21.64,-0.00023,-43.41,,,,,,,
21.66,-0.00026,-46.95,,,,,,,
21.69,-0.00028,-50.43,,,,,,,
21.71,-0.00031,-54.14,,,,,,,
21.71,-0.00031,-54.38,,,,,,,
21.73,-0.00033,-57.38,,,,,,,
21.76,-0.00036,-60.71,,,,,,,
21.77,-0.00038,-63.98,,,,,,,
21.8,-0.00041,-67.29,,,,,,,
21.83,-0.00043,-70.74,,,,,,,
21.85,-0.00046,-73.63,,,,,,,
21.88,-0.00049,-76.7,,,,,,,
21.91,-0.00051,-80.09,,,,,,,
21.95,-0.00054,-83.31,,,,,,,
21.98,-0.00056,-86.6,,,,,,,
22.01,-0.00059,-89.8,,,,,,,
22.05,-0.00061,-93.08,,,,,,,
22.07,-0.00064,-95.84,,,,,,,
22.1,-0.00066,-98.81,,,,,,,
22.14,-0.00069,-102.3,,,,,,,
22.17,-0.00071,-105.4,,,,,,,
22.2,-0.00074,-108.9,,,,,,,
22.23,-0.00077,-111.9,,,,,,,
22.27,-0.00079,-115.2,,,,,,,
22.29,-0.00082,-118.9,,,,,,,
22.31,-0.00084,-122.4,,,,,,,
22.34,-0.00087,-125.9,,,,,,,
22.36,-0.00089,-129.2,,,,,,,
22.38,-0.00092,-132.6,,,,,,,
22.4,-0.00095,-135.9,,,,,,,
22.41,-0.00097,-139.4,,,,,,,
22.43,-0.001,-142.7,,,,,,,
22.45,-0.00102,-146.0,,,,,,,
22.47,-0.00105,-149.0,,,,,,,
22.48,-0.00107,-151.8,,,,,,,
22.51,-0.0011,-154.6,,,,,,,
22.53,-0.00112,-157.1,,,,,,,
22.55,-0.00115,-159.1,,,,,,,
22.57,-0.00117,-159.8,,,,,,,
22.6,-0.0012,-160.4,,,,,,,
22.63,-0.00122,-160.0,,,,,,,
22.71,-0.00123,-154.7,,,,,,,
22.77,-0.0012,-147.9,,,,,,,
22.8,-0.00117,-143.4,,,,,,,
22.82,-0.00115,-139.0,,,,,,,
22.85,-0.00112,-135.0,,,,,,,
22.88,-0.0011,-131.1,,,,,,,
22.9,-0.00107,-127.1,,,,,,,
22.92,-0.00105,-123.3,,,,,,,
22.95,-0.00102,-119.9,,,,,,,
22.98,-0.00099,-115.9,,,,,,,
23.0,-0.00097,-112.2,,,,,,,
23.02,-0.00094,-108.6,,,,,,,
23.05,-0.00092,-104.7,,,,,,,
23.08,-0.00089,-101.1,,,,,,,
23.1,-0.00087,-97.53,,,,,,,
23.13,-0.00084,-93.81,,,,,,,
23.16,-0.00082,-90.02,,,,,,,
23.18,-0.00079,-86.45,,,,,,,
23.21,-0.00077,-82.99,,,,,,,
23.23,-0.00074,-79.38,,,,,,,
23.27,-0.00071,-76.02,,,,,,,
23.29,-0.00069,-72.49,,,,,,,
23.32,-0.00066,-68.9,,,,,,,
23.35,-0.00064,-65.11,,,,,,,
23.38,-0.00061,-61.35,,,,,,,
23.41,-0.00059,-57.69,,,,,,,
23.44,-0.00056,-54.18,,,,,,,
23.46,-0.00054,-50.83,,,,,,,
23.49,-0.00051,-46.87,,,,,,,
23.52,-0.00049,-43.12,,,,,,,
23.55,-0.00046,-39.73,,,,,,,
23.59,-0.00044,-35.84,,,,,,,
23.61,-0.00041,-32.4,,,,,,,
23.64,-0.00038,-28.63,,,,,,,
23.67,-0.00036,-24.71,,,,,,,
23.7,-0.00033,-21.26,,,,,,,
23.71,-0.00032,-19.84,,,,,,,
23.73,-0.00031,-18.0,,,,,,,
23.76,-0.00028,-14.52,,,,,,,
23.79,-0.00026,-10.56,,,,,,,
59.41,-0.00024,31.3,,,,,,,
59.45,-0.00021,34.47,,,,,,,
59.47,-0.00019,37.29,,,,,,,
59.5,-0.00016,40.34,,,,,,,
59.53,-0.00014,42.68,,,,,,,
59.56,-0.00011,45.13,,,,,,,
59.6,-9e-05,47.72,,,,,,,
59.65,-6e-05,50.42,,,,,,,
59.69,-4e-05,52.95,,,,,,,
59.71,-2e-05,55.02,,,,,,,
59.73,-1e-05,56.05,,,,,,,
59.76,1e-05,58.91,,,,,,,
59.79,4e-05,62.14,,,,,,,
59.82,7e-05,65.0,,,,,,,
59.84,9e-05,68.03,,,,,,,
59.88,0.00012,70.99,,,,,,,
59.9,0.00014,73.78,,,,,,,
59.93,0.00017,76.91,,,,,,,
59.95,0.00019,79.65,,,,,,,
59.98,0.00022,82.55,,,,,,,
60.0,0.00024,85.55,,,,,,,
60.02,0.00027,88.28,,,,,,,
60.05,0.00029,90.88,,,,,,,
60.07,0.00032,93.72,,,,,,,
60.09,0.00035,96.25,,,,,,,
60.12,0.00037,98.48,,,,,,,
60.14,0.0004,100.86,,,,,,,
60.17,0.00042,103.36,,,,,,,
60.2,0.00045,105.49,,,,,,,
60.23,0.00047,107.69,,,,,,,
60.25,0.0005,109.94,,,,,,,
60.28,0.00052,112.07,,,,,,,
60.31,0.00055,114.05,,,,,,,
60.34,0.00057,116.22,,,,,,,
60.37,0.0006,118.1,,,,,,,
60.4,0.00063,120.16,,,,,,,
60.43,0.00065,122.1,,,,,,,
60.46,0.00068,124.27,,,,,,,
60.48,0.0007,126.22,,,,,,,
60.51,0.00073,128.19,,,,,,,
60.54,0.00075,130.22,,,,,,,
60.57,0.00078,131.93,,,,,,,
60.59,0.0008,134.0,,,,,,,
60.62,0.00083,135.88,,,,,,,
60.65,0.00085,137.84,,,,,,,
60.67,0.00088,139.7,,,,,,,
60.7,0.0009,141.8,,,,,,,
60.71,0.00093,143.66,,,,,,,
60.72,0.00093,144.04,,,,,,,
60.74,0.00096,146.26,,,,,,,
60.76,0.00098,148.39,,,,,,,
60.77,0.00101,150.62,,,,,,,
60.8,0.00103,152.8,,,,,,,
60.81,0.00106,155.06,,,,,,,
60.84,0.00108,157.09,,,,,,,
60.85,0.00111,159.34,,,,,,,
60.87,0.00114,161.29,,,,,,,
60.88,0.00116,161.8,,,,,,,
60.9,0.00119,163.36,,,,,,,
60.91,0.00121,164.84,,,,,,,
60.92,0.00124,166.43,,,,,,,
60.94,0.00127,166.44,,,,,,,
60.95,0.00129,167.54,,,,,,,
60.96,0.00132,168.29,,,,,,,
60.98,0.00134,169.15,,,,,,,
60.98,0.00137,168.46,,,,,,,
60.99,0.0014,168.5,,,,,,,
61.01,0.00142,168.71,,,,,,,
61.02,0.00145,168.56,,,,,,,
61.03,0.00147,167.89,,,,,,,
61.08,0.0015,163.83,,,,,,,
61.16,0.00147,150.55,,,,,,,
61.19,0.00145,144.5,,,,,,,
61.21,0.00142,139.2,,,,,,,
61.23,0.0014,134.49,,,,,,,
61.26,0.00137,129.78,,,,,,,
61.28,0.00134,125.66,,,,,,,
61.3,0.00132,121.32,,,,,,,
61.32,0.00129,117.26,,,,,,,
61.34,0.00127,113.47,,,,,,,
61.36,0.00124,109.2,,,,,,,
61.38,0.00122,105.48,,,,,,,
61.4,0.00119,101.73,,,,,,,
61.42,0.00116,97.97,,,,,,,
61.45,0.00114,94.24,,,,,,,
61.47,0.00111,90.65,,,,,,,
61.49,0.00109,86.97,,,,,,,
61.51,0.00106,83.49,,,,,,,
61.54,0.00104,79.86,,,,,,,
61.56,0.00101,76.3,,,,,,,
61.59,0.00099,72.63,,,,,,,
61.61,0.00096,69.08,,,,,,,
61.64,0.00094,65.46,,,,,,,
61.66,0.00091,61.82,,,,,,,
61.7,0.00088,58.0,,,,,,,
61.71,0.00087,55.86,,,,,,,
61.73,0.00086,54.46,,,,,,,
61.75,0.00083,50.64,,,,,,,
61.78,0.00081,47.14,,,,,,,
61.8,0.00078,43.99,,,,,,,
61.84,0.00076,40.42,,,,,,,
61.87,0.00073,36.99,,,,,,,
61.89,0.00071,33.66,,,,,,,
61.92,0.00068,30.33,,,,,,,
61.95,0.00066,26.87,,,,,,,
61.98,0.00063,23.41,,,,,,,
62.01,0.00061,20.14,,,,,,,
62.04,0.00058,16.48,,,,,,,
62.06,0.00056,13.14,,,,,,,
62.09,0.00053,9.89,,,,,,,
62.12,0.00051,6.64,,,,,,,
62.15,0.00048,3.08,,,,,,,
62.18,0.00045,-0.13,,,,,,,
62.2,0.00043,-3.33,,,,,,,
62.23,0.0004,-6.67,,,,,,,
62.27,0.00038,-9.87,,,,,,,
62.29,0.00035,-12.86,,,,,,,
62.32,0.00033,-15.97,,,,,,,
62.35,0.0003,-19.01,,,,,,,
62.38,0.00028,-21.12,,,,,,,
62.43,0.00025,-23.65,,,,,,,
62.48,0.00023,-26.46,,,,,,,
62.54,0.0002,-29.45,,,,,,,
62.58,0.00018,-32.76,,,,,,,
62.62,0.00015,-36.17,,,,,,,
62.65,0.00012,-40.15,,,,,,,
62.67,0.0001,-43.36,,,,,,,
62.7,7e-05,-46.56,,,,,,,
62.71,5e-05,-49.32,,,,,,,
62.71,5e-05,-49.78,,,,,,,
62.73,2e-05,-52.64,,,,,,,
62.76,-0.0,-55.62,,,,,,,
62.78,-3e-05,-58.57,,,,,,,
62.8,-5e-05,-61.22,,,,,,,
62.82,-8e-05,-63.69,,,,,,,
62.84,-0.0001,-66.5,,,,,,,
62.88,-0.00013,-69.07,,,,,,,
62.9,-0.00016,-71.78,,,,,,,
62.92,-0.00018,-74.2,,,,,,,
62.95,-0.00021,-76.6,,,,,,,
62.98,-0.00023,-79.19,,,,,,,
63.02,-0.00026,-81.62,,,,,,,
63.04,-0.00028,-83.84,,,,,,,
63.07,-0.00031,-86.18,,,,,,,
63.1,-0.00033,-88.53,,,,,,,
63.13,-0.00036,-90.87,,,,,,,
63.16,-0.00039,-93.28,,,,,,,
63.2,-0.00041,-95.76,,,,,,,
63.23,-0.00044,-98.12,,,,,,,
63.26,-0.00046,-100.7,,,,,,,
63.29,-0.00049,-103.0,,,,,,,
63.31,-0.00051,-105.5,,,,,,,
63.34,-0.00054,-107.7,,,,,,,
63.37,-0.00057,-110.3,,,,,,,
63.38,-0.00059,-112.8,,,,,,,
63.41,-0.00062,-115.7,,,,,,,
63.43,-0.00064,-118.3,,,,,,,
63.45,-0.00067,-120.9,,,,,,,
63.47,-0.00069,-123.6,,,,,,,
63.49,-0.00072,-126.3,,,,,,,
63.51,-0.00075,-128.8,,,,,,,
63.52,-0.00077,-131.5,,,,,,,
63.54,-0.0008,-134.0,,,,,,,
63.55,-0.00082,-136.4,,,,,,,
63.57,-0.00085,-139.0,,,,,,,
63.59,-0.00087,-141.4,,,,,,,
63.61,-0.0009,-143.8,,,,,,,
63.63,-0.00093,-146.1,,,,,,,
63.64,-0.00095,-148.3,,,,,,,
63.66,-0.00098,-150.3,,,,,,,
63.67,-0.001,-152.4,,,,,,,
63.69,-0.00103,-154.3,,,,,,,
63.7,-0.00105,-155.8,,,,,,,
63.71,-0.00107,-156.0,,,,,,,
63.72,-0.00108,-156.1,,,,,,,
63.73,-0.00111,-157.1,,,,,,,
63.73,-0.00113,-157.9,,,,,,,
63.74,-0.00116,-158.8,,,,,,,
63.75,-0.00118,-159.7,,,,,,,
63.77,-0.00121,-160.7,,,,,,,
63.77,-0.00124,-161.0,,,,,,,
63.79,-0.00126,-162.1,,,,,,,
63.8,-0.00129,-162.9,,,,,,,
63.83,-0.00131,-163.8,,,,,,,
63.84,-0.00134,-164.8,,,,,,,
63.87,-0.00136,-165.4,,,,,,,
63.89,-0.00139,-166.0,,,,,,,
63.91,-0.00141,-166.5,,,,,,,
63.95,-0.00144,-166.5,,,,,,,
63.98,-0.00146,-165.6,,,,,,,
64.03,-0.00149,-161.3,,,,,,,
64.13,-0.00146,-146.5,,,,,,,
64.16,-0.00144,-140.5,,,,,,,
64.19,-0.00141,-135.0,,,,,,,
64.21,-0.00139,-130.0,,,,,,,
64.23,-0.00136,-125.5,,,,,,,
64.26,-0.00134,-120.9,,,,,,,
64.28,-0.00131,-116.4,,,,,,,
64.3,-0.00128,-112.1,,,,,,,
64.32,-0.00126,-108.0,,,,,,,
64.34,-0.00123,-104.3,,,,,,,
64.36,-0.00121,-100.4,,,,,,,
64.38,-0.00118,-96.52,,,,,,,
64.41,-0.00116,-92.46,,,,,,,
64.43,-0.00113,-88.68,,,,,,,
64.45,-0.00111,-84.94,,,,,,,
64.48,-0.00108,-81.27,,,,,,,
64.49,-0.00106,-77.84,,,,,,,
64.52,-0.00103,-74.13,,,,,,,
64.55,-0.001,-70.26,,,,,,,
64.57,-0.00098,-66.36,,,,,,,
64.59,-0.00095,-63.21,,,,,,,
64.62,-0.00093,-59.52,,,,,,,
64.65,-0.0009,-55.92,,,,,,,
64.67,-0.00088,-52.71,,,,,,,
64.7,-0.00085,-48.82,,,,,,,
64.71,-0.00084,-47.34,,,,,,,
64.73,-0.00083,-45.08,,,,,,,
64.76,-0.0008,-41.82,,,,,,,
64.78,-0.00078,-38.44,,,,,,,
64.81,-0.00075,-34.57,,,,,,,
64.84,-0.00073,-31.28,,,,,,,
64.88,-0.0007,-27.45,,,,,,,
64.9,-0.00068,-24.15,,,,,,,
64.93,-0.00065,-20.72,,,,,,,
64.96,-0.00062,-17.23,,,,,,,
64.99,-0.0006,-13.71,,,,,,,
65.02,-0.00057,-10.12,,,,,,,
65.05,-0.00055,-6.58,,,,,,,
65.08,-0.00052,-3.35,,,,,,,
65.11,-0.0005,-0.01,,,,,,,
65.13,-0.00047,3.63,,,,,,,
65.16,-0.00045,6.71,,,,,,,
65.2,-0.00042,10.1,,,,,,,
65.22,-0.0004,13.38,,,,,,,
65.24,-0.00037,16.22,,,,,,,
65.27,-0.00035,19.53,,,,,,,
65.3,-0.00032,22.96,,,,,,,
65.33,-0.00029,26.01,,,,,,,
65.36,-0.00027,29.13,,,,,,,
292.23,-0.00022,32.62,,,,,,,
292.27,-0.0002,35.54,,,,,,,
292.29,-0.00017,38.27,,,,,,,
292.32,-0.00015,40.83,,,,,,,
292.36,-0.00012,43.3,,,,,,,
292.4,-0.0001,45.68,,,,,,,
292.43,-7e-05,48.03,,,,,,,
292.47,-5e-05,50.53,,,,,,,
292.51,-2e-05,52.86,,,,,,,
292.54,1e-05,55.69,,,,,,,
292.57,3e-05,58.47,,,,,,,
292.6,6e-05,61.1,,,,,,,
292.63,8e-05,64.18,,,,,,,
292.66,0.00011,66.76,,,,,,,
292.68,0.00013,69.33,,,,,,,
292.71,0.00016,72.13,,,,,,,
292.71,0.00016,72.55,,,,,,,
292.73,0.00018,74.88,,,,,,,
292.76,0.00021,77.76,,,,,,,
292.78,0.00023,80.37,,,,,,,
292.8,0.00026,83.11,,,,,,,
292.83,0.00029,85.79,,,,,,,
292.85,0.00031,88.29,,,,,,,
292.88,0.00034,90.9,,,,,,,
292.9,0.00036,93.16,,,,,,,
292.93,0.00039,95.35,,,,,,,
292.95,0.00041,97.74,,,,,,,
292.98,0.00044,100.07,,,,,,,
293.01,0.00046,102.25,,,,,,,
293.04,0.00049,104.47,,,,,,,
293.06,0.00052,106.62,,,,,,,
293.09,0.00054,108.64,,,,,,,
293.13,0.00057,110.84,,,,,,,
293.15,0.00059,112.84,,,,,,,
293.18,0.00062,114.83,,,,,,,
293.21,0.00064,117.06,,,,,,,
293.24,0.00067,118.92,,,,,,,
293.27,0.00069,121.02,,,,,,,
293.3,0.00072,123.26,,,,,,,
293.32,0.00074,125.4,,,,,,,
293.35,0.00077,127.42,,,,,,,
293.38,0.0008,129.38,,,,,,,
293.41,0.00082,131.44,,,,,,,
293.43,0.00085,133.36,,,,,,,
293.46,0.00087,135.71,,,,,,,
293.48,0.0009,137.67,,,,,,,
293.51,0.00092,139.8,,,,,,,
293.54,0.00095,142.14,,,,,,,
293.56,0.00097,144.58,,,,,,,
293.58,0.001,146.83,,,,,,,
293.6,0.00103,149.09,,,,,,,
293.62,0.00105,151.36,,,,,,,
293.64,0.00108,153.48,,,,,,,
293.66,0.0011,155.59,,,,,,,
293.67,0.00113,157.7,,,,,,,
293.69,0.00115,159.96,,,,,,,
293.71,0.00118,161.89,,,,,,,
293.71,0.00119,162.34,,,,,,,
293.73,0.0012,163.84,,,,,,,
293.74,0.00123,165.7,,,,,,,
293.76,0.00126,167.44,,,,,,,
293.77,0.00128,168.79,,,,,,,
293.79,0.00131,170.05,,,,,,,
293.8,0.00133,170.96,,,,,,,
293.83,0.00136,171.37,,,,,,,
293.84,0.00138,171.31,,,,,,,
293.87,0.00141,170.52,,,,,,,
293.91,0.00143,167.91,,,,,,,
294.04,0.00141,146.6,,,,,,,
294.07,0.00138,140.58,,,,,,,
294.09,0.00136,135.02,,,,,,,
294.12,0.00133,130.16,,,,,,,
294.13,0.00131,125.92,,,,,,,
294.16,0.00128,121.54,,,,,,,
294.18,0.00126,117.27,,,,,,,
294.2,0.00123,113.32,,,,,,,
294.21,0.00121,109.37,,,,,,,
294.23,0.00118,105.67,,,,,,,
294.26,0.00115,101.94,,,,,,,
294.27,0.00113,98.07,,,,,,,
294.3,0.0011,94.58,,,,,,,
294.32,0.00108,90.85,,,,,,,
294.34,0.00105,87.29,,,,,,,
294.36,0.00103,83.98,,,,,,,
294.38,0.001,80.48,,,,,,,
294.41,0.00098,76.81,,,,,,,
294.43,0.00095,73.53,,,,,,,
294.45,0.00093,70.0,,,,,,,
294.48,0.0009,66.41,,,,,,,
294.51,0.00087,62.99,,,,,,,
294.53,0.00085,59.52,,,,,,,
294.56,0.00082,55.92,,,,,,,
294.59,0.0008,52.13,,,,,,,
294.62,0.00077,48.89,,,,,,,
294.65,0.00075,45.26,,,,,,,
294.68,0.00072,41.98,,,,,,,
294.71,0.0007,38.16,,,,,,,
294.71,0.00069,37.66,,,,,,,
294.74,0.00067,34.64,,,,,,,
294.77,0.00064,30.84,,,,,,,
294.8,0.00062,27.08,,,,,,,
294.83,0.00059,23.82,,,,,,,
294.86,0.00057,20.37,,,,,,,
294.88,0.00054,16.65,,,,,,,
294.91,0.00052,13.29,,,,,,,
294.95,0.00049,10.02,,,,,,,
294.98,0.00047,6.29,,,,,,,
295.0,0.00044,2.97,,,,,,,
295.03,0.00042,-0.3,,,,,,,
295.05,0.00039,-3.63,,,,,,,
295.09,0.00036,-7.25,,,,,,,
295.11,0.00034,-10.07,,,,,,,
295.14,0.00031,-12.95,,,,,,,
295.16,0.00029,-16.06,,,,,,,
295.2,0.00026,-18.87,,,,,,,
295.23,0.00024,-21.15,,,,,,,
295.26,0.00021,-23.03,,,,,,,
295.3,0.00019,-25.32,,,,,,,
295.36,0.00016,-27.84,,,,,,,
295.41,0.00014,-30.65,,,,,,,
295.45,0.00011,-34.11,,,,,,,
295.48,8e-05,-37.91,,,,,,,
295.51,6e-05,-41.42,,,,,,,
295.53,3e-05,-44.6,,,,,,,
295.55,1e-05,-47.53,,,,,,,
295.58,-2e-05,-50.6,,,,,,,
295.6,-4e-05,-53.74,,,,,,,
295.63,-7e-05,-56.73,,,,,,,
295.64,-9e-05,-59.28,,,,,,,
295.66,-0.00012,-61.95,,,,,,,
295.69,-0.00015,-64.54,,,,,,,
295.71,-0.00017,-66.95,,,,,,,
295.71,-0.00017,-67.12,,,,,,,
295.74,-0.0002,-69.83,,,,,,,
295.77,-0.00022,-72.19,,,,,,,
295.79,-0.00025,-74.61,,,,,,,
295.82,-0.00027,-76.95,,,,,,,
295.85,-0.0003,-79.14,,,,,,,
295.88,-0.00032,-81.46,,,,,,,
295.91,-0.00035,-83.98,,,,,,,
295.95,-0.00037,-86.12,,,,,,,
295.98,-0.0004,-88.48,,,,,,,
296.01,-0.00043,-90.78,,,,,,,
296.04,-0.00045,-93.21,,,,,,,
296.07,-0.00048,-95.42,,,,,,,
296.09,-0.0005,-97.8,,,,,,,
296.13,-0.00053,-100.1,,,,,,,
296.15,-0.00055,-102.2,,,,,,,
296.18,-0.00058,-105.0,,,,,,,
296.2,-0.0006,-107.3,,,,,,,
296.23,-0.00063,-109.5,,,,,,,
296.25,-0.00066,-112.2,,,,,,,
296.27,-0.00068,-115.1,,,,,,,
296.3,-0.00071,-117.5,,,,,,,
296.32,-0.00073,-120.3,,,,,,,
296.34,-0.00076,-122.8,,,,,,,
296.35,-0.00078,-125.6,,,,,,,
296.37,-0.00081,-127.9,,,,,,,
296.39,-0.00084,-130.8,,,,,,,
296.41,-0.00086,-133.2,,,,,,,
296.42,-0.00089,-135.7,,,,,,,
296.44,-0.00091,-138.1,,,,,,,
296.45,-0.00094,-140.4,,,,,,,
296.47,-0.00096,-142.7,,,,,,,
296.48,-0.00099,-144.9,,,,,,,
296.51,-0.00102,-147.3,,,,,,,
296.52,-0.00104,-149.2,,,,,,,
296.53,-0.00107,-151.3,,,,,,,
296.55,-0.00109,-153.4,,,,,,,
296.56,-0.00112,-155.1,,,,,,,
296.59,-0.00115,-157.2,,,,,,,
296.6,-0.00117,-158.9,,,,,,,
296.62,-0.0012,-160.7,,,,,,,
296.63,-0.00122,-162.3,,,,,,,
296.65,-0.00125,-163.6,,,,,,,
296.66,-0.00127,-165.2,,,,,,,
296.68,-0.0013,-166.6,,,,,,,
296.7,-0.00132,-167.8,,,,,,,
296.71,-0.00134,-168.8,,,,,,,
296.71,-0.00135,-169.0,,,,,,,
296.73,-0.00138,-164.0,,,,,,,
296.73,-0.00141,-164.4,,,,,,,
296.73,-0.00144,-164.5,,,,,,,
296.74,-0.00147,-164.7,,,,,,,
296.74,-0.0015,-164.7,,,,,,,
296.74,-0.00153,-164.6,,,,,,,
296.74,-0.00156,-165.0,,,,,,,
296.75,-0.0016,-164.9,,,,,,,
296.75,-0.00163,-165.0,,,,,,,
296.75,-0.00165,-165.1,,,,,,,
296.75,-0.00168,-165.1,,,,,,,
296.76,-0.00171,-165.2,,,,,,,
296.76,-0.00174,-165.3,,,,,,,
296.76,-0.00177,-165.2,,,,,,,
296.77,-0.0018,-165.0,,,,,,,
296.77,-0.00183,-164.9,,,,,,,
296.78,-0.00185,-164.5,,,,,,,
296.86,-0.00183,-144.0,,,,,,,
296.88,-0.0018,-138.3,,,,,,,
296.88,-0.00177,-133.3,,,,,,,
296.9,-0.00175,-128.4,,,,,,,
296.91,-0.00172,-123.7,,,,,,,
296.92,-0.00169,-119.7,,,,,,,
296.93,-0.00167,-115.6,,,,,,,
296.95,-0.00164,-111.5,,,,,,,
296.95,-0.00162,-107.8,,,,,,,
296.96,-0.00159,-103.8,,,,,,,
296.98,-0.00156,-100.1,,,,,,,
296.98,-0.00154,-96.44,,,,,,,
296.99,-0.00151,-92.8,,,,,,,
297.01,-0.00149,-89.3,,,,,,,
297.02,-0.00146,-85.91,,,,,,,
297.02,-0.00144,-82.54,,,,,,,
297.04,-0.00141,-79.01,,,,,,,
297.05,-0.00138,-75.5,,,,,,,
297.06,-0.00136,-72.21,,,,,,,
297.08,-0.00133,-68.84,,,,,,,
297.09,-0.00131,-65.43,,,,,,,
297.11,-0.00128,-62.24,,,,,,,
297.13,-0.00125,-58.9,,,,,,,
297.14,-0.00123,-55.44,,,,,,,
297.16,-0.0012,-52.6,,,,,,,
297.18,-0.00118,-49.56,,,,,,,
297.21,-0.00115,-45.48,,,,,,,
297.23,-0.00112,-42.31,,,,,,,
297.26,-0.0011,-38.8,,,,,,,
297.28,-0.00107,-35.3,,,,,,,
297.31,-0.00105,-31.98,,,,,,,
297.34,-0.00102,-27.93,,,,,,,
297.38,-0.001,-24.33,,,,,,,
297.4,-0.00097,-21.33,,,,,,,
297.43,-0.00095,-17.77,,,,,,,
297.46,-0.00092,-14.11,,,,,,,
297.49,-0.0009,-10.79,,,,,,,
297.52,-0.00087,-7.4,,,,,,,
297.55,-0.00084,-4.12,,,,,,,
297.58,-0.00082,-0.6,,,,,,,
297.61,-0.00079,2.88,,,,,,,
297.63,-0.00077,6.11,,,,,,,
297.66,-0.00074,9.27,,,,,,,
297.7,-0.00072,12.51,,,,,,,
297.71,-0.0007,14.82,,,,,,,
297.72,-0.00069,15.47,,,,,,,
297.74,-0.00067,18.75,,,,,,,
297.77,-0.00064,21.77,,,,,,,
297.8,-0.00062,24.61,,,,,,,
297.83,-0.00059,27.82,,,,,,,
297.85,-0.00057,30.46,,,,,,,
297.88,-0.00054,33.6,,,,,,,
297.91,-0.00051,36.71,,,,,,,
297.94,-0.00049,39.28,,,,,,,
297.97,-0.00046,41.6,,,,,,,
298.01,-0.00044,44.17,,,,,,,
298.05,-0.00041,46.85,,,,,,,
298.09,-0.00039,49.61,,,,,,,
298.13,-0.00036,52.12,,,,,,,
298.16,-0.00034,55.13,,,,,,,
536.99,-0.00023,31.79,,,,,,,
537.02,-0.0002,34.84,,,,,,,
537.05,-0.00018,37.76,,,,,,,
537.07,-0.00015,40.28,,,,,,,
537.11,-0.00013,42.66,,,,,,,
537.14,-0.0001,45.02,,,,,,,
537.19,-7e-05,47.52,,,,,,,
537.23,-5e-05,50.32,,,,,,,
537.27,-2e-05,53.04,,,,,,,
537.3,0.0,55.81,,,,,,,
537.34,3e-05,58.99,,,,,,,
537.37,5e-05,61.88,,,,,,,
537.39,8e-05,64.47,,,,,,,
537.41,0.0001,67.14,,,,,,,
537.44,0.00013,69.77,,,,,,,
537.47,0.00015,72.46,,,,,,,
537.49,0.00018,75.3,,,,,,,
537.52,0.0002,78.07,,,,,,,
537.54,0.00023,80.76,,,,,,,
537.56,0.00025,83.39,,,,,,,
537.59,0.00028,85.82,,,,,,,
537.6,0.0003,88.31,,,,,,,
537.63,0.00033,90.7,,,,,,,
537.65,0.00035,92.98,,,,,,,
537.68,0.00038,95.21,,,,,,,
537.7,0.00041,97.36,,,,,,,
537.71,0.00042,98.34,,,,,,,
537.73,0.00043,99.47,,,,,,,
537.76,0.00046,101.68,,,,,,,
537.78,0.00048,103.84,,,,,,,
537.81,0.00051,105.75,,,,,,,
537.84,0.00053,107.72,,,,,,,
537.87,0.00056,109.77,,,,,,,
537.9,0.00058,111.63,,,,,,,
537.93,0.00061,113.65,,,,,,,
537.95,0.00063,115.71,,,,,,,
537.98,0.00066,117.58,,,,,,,
538.02,0.00068,119.65,,,,,,,
538.05,0.00071,121.78,,,,,,,
538.07,0.00074,123.94,,,,,,,
538.1,0.00076,125.95,,,,,,,
538.13,0.00079,128.13,,,,,,,
538.16,0.00081,130.23,,,,,,,
538.19,0.00084,132.37,,,,,,,
538.21,0.00086,134.54,,,,,,,
538.23,0.00089,136.3,,,,,,,
538.27,0.00091,138.58,,,,,,,
538.29,0.00094,140.91,,,,,,,
538.3,0.00096,143.08,,,,,,,
538.33,0.00099,145.3,,,,,,,
538.35,0.00101,147.69,,,,,,,
538.37,0.00104,149.91,,,,,,,
538.39,0.00107,152.02,,,,,,,
538.41,0.00109,154.13,,,,,,,
538.43,0.00112,156.5,,,,,,,
538.45,0.00114,158.54,,,,,,,
538.46,0.00117,160.55,,,,,,,
538.48,0.00119,162.48,,,,,,,
538.49,0.00122,164.23,,,,,,,
538.51,0.00125,166.05,,,,,,,
538.52,0.00127,167.65,,,,,,,
538.54,0.0013,168.95,,,,,,,
538.55,0.00132,169.97,,,,,,,
538.57,0.00135,170.6,,,,,,,
538.59,0.00137,170.85,,,,,,,
538.62,0.0014,170.16,,,,,,,
538.66,0.00142,168.34,,,,,,,
538.71,0.00144,161.73,,,,,,,
538.8,0.0014,146.21,,,,,,,
538.83,0.00137,140.18,,,,,,,
538.85,0.00135,135.33,,,,,,,
538.88,0.00132,130.27,,,,,,,
538.9,0.0013,125.71,,,,,,,
538.91,0.00127,121.26,,,,,,,
538.94,0.00124,117.02,,,,,,,
538.96,0.00122,112.84,,,,,,,
538.98,0.00119,108.83,,,,,,,
539.0,0.00117,104.84,,,,,,,
539.02,0.00114,100.85,,,,,,,
539.05,0.00112,97.33,,,,,,,
539.07,0.00109,93.5,,,,,,,
539.09,0.00107,89.71,,,,,,,
539.11,0.00104,86.03,,,,,,,
539.13,0.00101,82.42,,,,,,,
539.16,0.00099,78.92,,,,,,,
539.18,0.00096,75.25,,,,,,,
539.21,0.00094,71.46,,,,,,,
539.23,0.00091,67.92,,,,,,,
539.27,0.00089,64.01,,,,,,,
539.29,0.00086,60.39,,,,,,,
539.32,0.00084,56.67,,,,,,,
539.35,0.00081,52.86,,,,,,,
539.38,0.00079,49.31,,,,,,,
539.41,0.00076,45.73,,,,,,,
539.44,0.00073,41.93,,,,,,,
539.46,0.00071,38.49,,,,,,,
539.49,0.00068,35.03,,,,,,,
539.52,0.00066,31.2,,,,,,,
539.55,0.00063,27.86,,,,,,,
539.58,0.00061,24.62,,,,,,,
539.61,0.00058,20.95,,,,,,,
539.63,0.00056,17.8,,,,,,,
539.66,0.00053,14.66,,,,,,,
539.69,0.00051,11.32,,,,,,,
539.71,0.00048,8.24,,,,,,,
539.71,0.00048,8.0,,,,,,,
539.74,0.00046,4.76,,,,,,,
539.77,0.00043,1.64,,,,,,,
539.8,0.0004,-1.44,,,,,,,
539.82,0.00038,-4.84,,,,,,,
539.85,0.00035,-7.9,,,,,,,
539.88,0.00033,-10.91,,,,,,,
539.91,0.0003,-14.0,,,,,,,
539.94,0.00028,-17.07,,,,,,,
539.96,0.00025,-19.76,,,,,,,
540.0,0.00023,-22.01,,,,,,,
540.05,0.0002,-24.23,,,,,,,
540.1,0.00017,-26.96,,,,,,,
540.15,0.00015,-29.87,,,,,,,
540.2,0.00012,-33.46,,,,,,,
540.23,0.0001,-37.02,,,,,,,
540.26,7e-05,-40.65,,,,,,,
540.28,5e-05,-43.9,,,,,,,
540.3,2e-05,-47.13,,,,,,,
540.33,-0.0,-49.9,,,,,,,
540.35,-3e-05,-53.42,,,,,,,
540.37,-6e-05,-55.78,,,,,,,
540.39,-8e-05,-58.76,,,,,,,
540.41,-0.00011,-61.15,,,,,,,
540.43,-0.00013,-63.61,,,,,,,
540.46,-0.00016,-66.29,,,,,,,
540.48,-0.00018,-68.52,,,,,,,
540.51,-0.00021,-71.05,,,,,,,
540.53,-0.00023,-73.41,,,,,,,
540.56,-0.00026,-75.87,,,,,,,
540.59,-0.00028,-77.92,,,,,,,
540.62,-0.00031,-79.77,,,,,,,
540.65,-0.00033,-82.28,,,,,,,
540.67,-0.00036,-84.23,,,,,,,
540.7,-0.00038,-86.47,,,,,,,
540.71,-0.00039,-86.8,,,,,,,
540.73,-0.00041,-88.49,,,,,,,
540.77,-0.00044,-90.45,,,,,,,
540.8,-0.00046,-92.78,,,,,,,
540.82,-0.00049,-94.83,,,,,,,
540.85,-0.00051,-97.15,,,,,,,
540.89,-0.00054,-99.76,,,,,,,
540.91,-0.00056,-101.6,,,,,,,
540.95,-0.00059,-104.1,,,,,,,
540.97,-0.00061,-106.8,,,,,,,
540.99,-0.00064,-109.0,,,,,,,
541.02,-0.00067,-111.9,,,,,,,
541.04,-0.00069,-114.4,,,,,,,
541.06,-0.00072,-117.1,,,,,,,
541.08,-0.00074,-119.7,,,,,,,
541.1,-0.00077,-122.8,,,,,,,
541.12,-0.00079,-125.2,,,,,,,
541.13,-0.00082,-127.6,,,,,,,
541.16,-0.00084,-130.6,,,,,,,
541.17,-0.00087,-132.9,,,,,,,
541.19,-0.0009,-135.1,,,,,,,
541.2,-0.00092,-137.9,,,,,,,
541.22,-0.00095,-140.0,,,,,,,
541.23,-0.00097,-142.2,,,,,,,
541.26,-0.001,-145.0,,,,,,,
541.27,-0.00102,-147.0,,,,,,,
541.29,-0.00105,-149.2,,,,,,,
541.3,-0.00108,-151.5,,,,,,,
541.32,-0.0011,-153.2,,,,,,,
541.34,-0.00113,-155.1,,,,,,,
541.35,-0.00116,-157.3,,,,,,,
541.37,-0.00118,-159.0,,,,,,,
541.38,-0.00121,-160.4,,,,,,,
541.4,-0.00123,-162.2,,,,,,,
541.42,-0.00126,-163.8,,,,,,,
541.44,-0.00129,-165.1,,,,,,,
541.45,-0.00131,-166.4,,,,,,,
541.47,-0.00134,-167.9,,,,,,,
541.48,-0.00136,-168.8,,,,,,,
541.51,-0.00139,-169.7,,,,,,,
541.52,-0.00141,-170.3,,,,,,,
541.54,-0.00144,-163.0,,,,,,,
541.54,-0.00147,-162.9,,,,,,,
541.54,-0.00149,-162.8,,,,,,,
541.55,-0.00153,-162.7,,,,,,,
541.55,-0.00156,-162.7,,,,,,,
541.55,-0.00161,-162.9,,,,,,,
541.55,-0.00165,-162.6,,,,,,,
541.55,-0.00169,-162.7,,,,,,,
541.55,-0.00173,-162.8,,,,,,,
541.55,-0.00177,-162.6,,,,,,,
541.55,-0.0018,-162.5,,,,,,,
541.56,-0.00184,-162.4,,,,,,,
541.56,-0.00187,-162.4,,,,,,,
541.56,-0.00189,-162.2,,,,,,,
541.57,-0.00193,-162.1,,,,,,,
541.57,-0.00196,-161.9,,,,,,,
541.57,-0.00199,-161.6,,,,,,,
541.58,-0.00201,-160.9,,,,,,,
541.59,-0.00204,-159.0,,,,,,,
541.63,-0.00201,-145.3,,,,,,,
541.64,-0.00198,-138.7,,,,,,,
541.66,-0.00196,-132.1,,,,,,,
541.66,-0.00193,-127.1,,,,,,,
541.68,-0.00191,-122.7,,,,,,,
541.68,-0.00188,-118.6,,,,,,,
541.7,-0.00186,-114.5,,,,,,,
541.7,-0.00183,-109.9,,,,,,,
541.71,-0.0018,-105.3,,,,,,,
541.71,-0.00179,-103.8,,,,,,,
541.72,-0.00178,-101.4,,,,,,,
541.73,-0.00175,-97.53,,,,,,,
541.73,-0.00172,-93.6,,,,,,,
541.74,-0.0017,-90.14,,,,,,,
541.75,-0.00167,-86.43,,,,,,,
541.76,-0.00164,-82.24,,,,,,,
541.77,-0.00161,-78.16,,,,,,,
541.77,-0.00159,-74.37,,,,,,,
541.78,-0.00156,-70.86,,,,,,,
541.79,-0.00154,-67.71,,,,,,,
541.8,-0.00151,-64.61,,,,,,,
541.8,-0.00148,-61.17,,,,,,,
541.81,-0.00146,-57.62,,,,,,,
541.83,-0.00143,-53.89,,,,,,,
541.84,-0.0014,-50.66,,,,,,,
541.84,-0.00138,-47.58,,,,,,,
541.85,-0.00135,-44.78,,,,,,,
541.87,-0.00132,-41.33,,,,,,,
541.88,-0.0013,-37.81,,,,,,,
541.89,-0.00127,-35.05,,,,,,,
541.91,-0.00125,-32.25,,,,,,,
541.92,-0.00122,-28.86,,,,,,,
541.94,-0.0012,-25.85,,,,,,,
541.96,-0.00117,-23.19,,,,,,,
541.98,-0.00115,-19.61,,,,,,,
542.0,-0.00112,-17.26,,,,,,,
542.02,-0.0011,-13.59,,,,,,,
542.05,-0.00107,-10.77,,,,,,,
542.09,-0.00105,-7.31,,,,,,,
542.11,-0.00102,-4.28,,,,,,,
542.14,-0.00099,-1.19,,,,,,,
542.17,-0.00097,2.03,,,,,,,
542.2,-0.00094,5.24,,,,,,,
542.23,-0.00092,8.52,,,,,,,
542.26,-0.00089,11.72,,,,,,,
542.29,-0.00087,14.68,,,,,,,
542.32,-0.00084,17.77,,,,,,,
542.34,-0.00082,20.96,,,,,,,
542.38,-0.00079,23.92,,,,,,,
542.4,-0.00077,26.88,,,,,,,
542.43,-0.00074,29.84,,,,,,,
542.46,-0.00072,32.8,,,,,,,
542.48,-0.00069,35.53,,,,,,,
542.51,-0.00066,38.33,,,,,,,
542.54,-0.00064,40.68,,,,,,,
542.58,-0.00061,43.02,,,,,,,
542.62,-0.00059,45.54,,,,,,,
542.66,-0.00056,47.99,,,,,,,
542.7,-0.00054,50.4,,,,,,,
542.71,-0.00053,51.59,,,,,,,
542.73,-0.00051,52.93,,,,,,,
542.77,-0.00049,55.89,,,,,,,
542.8,-0.00046,58.91,,,,,,,
542.83,-0.00044,61.72,,,,,,,
542.86,-0.00041,64.55,,,,,,,
542.88,-0.00039,67.44,,,,,,,
542.91,-0.00036,70.08,,,,,,,
542.94,-0.00034,73.02,,,,,,,
1133.95,-0.00024,33.34,,,,,,,
1133.98,-0.00021,36.32,,,,,,,
1134.01,-0.00018,38.95,,,,,,,
1134.04,-0.00016,41.6,,,,,,,
1134.08,-0.00013,44.04,,,,,,,
1134.12,-0.00011,46.4,,,,,,,
1134.16,-8e-05,49.12,,,,,,,
1134.2,-6e-05,51.59,,,,,,,
1134.23,-3e-05,54.26,,,,,,,
1134.27,-1e-05,57.33,,,,,,,
1134.3,2e-05,60.26,,,,,,,
1134.34,4e-05,63.33,,,,,,,
1134.36,7e-05,66.28,,,,,,,
1134.38,9e-05,69.08,,,,,,,
1134.41,0.00012,71.96,,,,,,,
1134.44,0.00014,74.77,,,,,,,
1134.46,0.00017,77.76,,,,,,,
1134.48,0.0002,80.56,,,,,,,
1134.51,0.00022,83.23,,,,,,,
1134.53,0.00025,85.82,,,,,,,
1134.55,0.00027,88.39,,,,,,,
1134.57,0.0003,90.87,,,,,,,
1134.59,0.00032,93.12,,,,,,,
1134.62,0.00035,95.46,,,,,,,
1134.65,0.00037,97.73,,,,,,,
1134.67,0.0004,99.91,,,,,,,
1134.7,0.00042,102.16,,,,,,,
1134.71,0.00044,103.28,,,,,,,
1134.73,0.00045,104.15,,,,,,,
1134.75,0.00048,106.19,,,,,,,
1134.78,0.0005,108.27,,,,,,,
1134.81,0.00053,110.31,,,,,,,
1134.84,0.00055,112.3,,,,,,,
1134.87,0.00058,114.31,,,,,,,
1134.9,0.0006,116.36,,,,,,,
1134.93,0.00063,118.25,,,,,,,
1134.96,0.00065,120.4,,,,,,,
1134.98,0.00068,122.34,,,,,,,
1135.02,0.0007,124.32,,,,,,,
1135.04,0.00073,126.4,,,,,,,
1135.07,0.00076,128.07,,,,,,,
1135.09,0.00078,130.14,,,,,,,
1135.12,0.00081,131.97,,,,,,,
1135.15,0.00083,133.98,,,,,,,
1135.17,0.00086,135.85,,,,,,,
1135.2,0.00088,137.77,,,,,,,
1135.22,0.00091,139.98,,,,,,,
1135.24,0.00093,142.08,,,,,,,
1135.27,0.00096,144.28,,,,,,,
1135.29,0.00098,146.43,,,,,,,
1135.3,0.00101,148.6,,,,,,,
1135.33,0.00103,150.83,,,,,,,
1135.34,0.00106,153.04,,,,,,,
1135.36,0.00109,155.02,,,,,,,
1135.38,0.00111,157.22,,,,,,,
1135.4,0.00114,159.18,,,,,,,
1135.41,0.00116,161.12,,,,,,,
1135.43,0.00119,162.97,,,,,,,
1135.45,0.00122,164.78,,,,,,,
1135.46,0.00124,166.11,,,,,,,
1135.48,0.00127,167.51,,,,,,,
1135.49,0.00129,168.88,,,,,,,
1135.51,0.00132,170.11,,,,,,,
1135.52,0.00134,171.01,,,,,,,
1135.55,0.00137,171.38,,,,,,,
1135.57,0.0014,171.2,,,,,,,
1135.59,0.00142,170.34,,,,,,,
1135.63,0.00145,167.69,,,,,,,
1135.71,0.00145,156.04,,,,,,,
1135.76,0.00142,147.88,,,,,,,
1135.79,0.00139,141.53,,,,,,,
1135.81,0.00137,136.15,,,,,,,
1135.84,0.00134,130.9,,,,,,,
1135.85,0.00132,126.34,,,,,,,
1135.88,0.00129,121.86,,,,,,,
1135.9,0.00127,117.33,,,,,,,
1135.92,0.00124,113.28,,,,,,,
1135.94,0.00122,109.0,,,,,,,
1135.96,0.00119,105.07,,,,,,,
1135.98,0.00116,101.03,,,,,,,
1136.01,0.00114,96.99,,,,,,,
1136.02,0.00111,93.22,,,,,,,
1136.05,0.00109,89.34,,,,,,,
1136.07,0.00106,85.59,,,,,,,
1136.09,0.00104,82.02,,,,,,,
1136.12,0.00101,78.17,,,,,,,
1136.14,0.00099,74.33,,,,,,,
1136.17,0.00096,70.57,,,,,,,
1136.2,0.00093,66.89,,,,,,,
1136.22,0.00091,63.27,,,,,,,
1136.24,0.00088,59.79,,,,,,,
1136.27,0.00086,56.4,,,,,,,
1136.3,0.00083,53.05,,,,,,,
1136.32,0.00081,49.85,,,,,,,
1136.34,0.00078,46.66,,,,,,,
1136.38,0.00076,43.37,,,,,,,
1136.41,0.00073,39.58,,,,,,,
1136.43,0.0007,36.19,,,,,,,
1136.46,0.00068,32.81,,,,,,,
1136.49,0.00065,29.29,,,,,,,
1136.52,0.00063,25.88,,,,,,,
1136.55,0.0006,22.54,,,,,,,
1136.58,0.00058,18.88,,,,,,,
1136.61,0.00055,15.47,,,,,,,
1136.63,0.00053,12.07,,,,,,,
1136.66,0.0005,8.69,,,,,,,
1136.7,0.00048,5.07,,,,,,,
1136.71,0.00046,3.12,,,,,,,
1136.73,0.00045,1.88,,,,,,,
1136.75,0.00042,-1.47,,,,,,,
1136.78,0.0004,-4.79,,,,,,,
1136.8,0.00037,-7.8,,,,,,,
1136.84,0.00035,-10.88,,,,,,,
1136.86,0.00032,-13.85,,,,,,,
1136.89,0.0003,-16.95,,,,,,,
1136.91,0.00027,-19.54,,,,,,,
1136.95,0.00025,-21.74,,,,,,,
1136.99,0.00022,-23.68,,,,,,,
1137.04,0.0002,-26.12,,,,,,,
1137.1,0.00017,-29.15,,,,,,,
1137.14,0.00015,-32.2,,,,,,,
1137.18,0.00012,-35.75,,,,,,,
1137.21,9e-05,-39.4,,,,,,,
1137.23,7e-05,-42.78,,,,,,,
1137.26,4e-05,-45.83,,,,,,,
1137.27,2e-05,-48.78,,,,,,,
1137.3,-1e-05,-51.92,,,,,,,
1137.32,-3e-05,-54.7,,,,,,,
1137.34,-6e-05,-57.42,,,,,,,
1137.36,-8e-05,-60.19,,,,,,,
1137.38,-0.00011,-62.8,,,,,,,
1137.41,-0.00014,-65.19,,,,,,,
1137.43,-0.00016,-67.68,,,,,,,
1137.46,-0.00019,-70.28,,,,,,,
1137.48,-0.00021,-72.55,,,,,,,
1137.51,-0.00024,-74.68,,,,,,,
1137.54,-0.00026,-77.05,,,,,,,
1137.57,-0.00029,-79.16,,,,,,,
1137.6,-0.00031,-81.43,,,,,,,
1137.63,-0.00034,-83.59,,,,,,,
1137.66,-0.00036,-85.97,,,,,,,
1137.7,-0.00039,-87.91,,,,,,,
1137.71,-0.00041,-89.52,,,,,,,
1137.73,-0.00042,-90.26,,,,,,,
1137.76,-0.00044,-92.62,,,,,,,
1137.79,-0.00047,-94.8,,,,,,,
1137.81,-0.00049,-97.2,,,,,,,
1137.84,-0.00052,-99.44,,,,,,,
1137.87,-0.00054,-101.6,,,,,,,
1137.9,-0.00057,-103.9,,,,,,,
1137.92,-0.00059,-106.2,,,,,,,
1137.95,-0.00062,-108.8,,,,,,,
1137.97,-0.00064,-111.5,,,,,,,
1137.99,-0.00067,-114.2,,,,,,,
1138.02,-0.0007,-117.0,,,,,,,
1138.04,-0.00072,-119.7,,,,,,,
1138.05,-0.00075,-122.0,,,,,,,
1138.07,-0.00077,-124.4,,,,,,,
1138.09,-0.0008,-127.0,,,,,,,
1138.11,-0.00082,-129.9,,,,,,,
1138.13,-0.00085,-132.3,,,,,,,
1138.14,-0.00088,-134.3,,,,,,,
1138.16,-0.0009,-136.7,,,,,,,
1138.17,-0.00093,-139.1,,,,,,,
1138.19,-0.00095,-141.4,,,,,,,
1138.2,-0.00098,-143.7,,,,,,,
1138.22,-0.00101,-145.7,,,,,,,
1138.23,-0.00103,-147.7,,,,,,,
1138.25,-0.00106,-149.5,,,,,,,
1138.27,-0.00108,-151.5,,,,,,,
1138.28,-0.00111,-153.4,,,,,,,
1138.3,-0.00113,-155.2,,,,,,,
1138.31,-0.00116,-156.9,,,,,,,
1138.33,-0.00118,-158.5,,,,,,,
1138.35,-0.00121,-160.0,,,,,,,
1138.37,-0.00124,-161.4,,,,,,,
1138.38,-0.00126,-162.8,,,,,,,
1138.4,-0.00129,-164.1,,,,,,,
1138.41,-0.00131,-165.4,,,,,,,
1138.44,-0.00134,-166.1,,,,,,,
1138.45,-0.00137,-167.0,,,,,,,
1138.48,-0.00139,-167.8,,,,,,,
1138.49,-0.00142,-168.3,,,,,,,
1138.52,-0.00144,-168.3,,,,,,,
1138.54,-0.00147,-167.6,,,,,,,
1138.57,-0.00149,-165.8,,,,,,,
1138.71,-0.00147,-141.5,,,,,,,
1138.71,-0.00147,-141.1,,,,,,,
1138.73,-0.00144,-136.1,,,,,,,
1138.76,-0.00142,-130.7,,,,,,,
1138.78,-0.00139,-125.7,,,,,,,
1138.8,-0.00137,-120.6,,,,,,,
1138.82,-0.00134,-116.2,,,,,,,
1138.84,-0.00131,-111.8,,,,,,,
1138.86,-0.00129,-107.8,,,,,,,
1138.88,-0.00126,-104.0,,,,,,,
1138.9,-0.00124,-99.99,,,,,,,
1138.91,-0.00121,-96.04,,,,,,,
1138.94,-0.00119,-91.91,,,,,,,
1138.95,-0.00116,-88.54,,,,,,,
1138.98,-0.00114,-84.67,,,,,,,
1138.99,-0.00111,-81.27,,,,,,,
1139.02,-0.00108,-77.1,,,,,,,
1139.04,-0.00106,-73.48,,,,,,,
1139.06,-0.00103,-70.01,,,,,,,
1139.09,-0.00101,-66.65,,,,,,,
1139.11,-0.00098,-62.89,,,,,,,
1139.13,-0.00096,-59.38,,,,,,,
1139.16,-0.00093,-55.59,,,,,,,
1139.2,-0.00091,-51.75,,,,,,,
1139.22,-0.00088,-48.41,,,,,,,
1139.24,-0.00085,-44.87,,,,,,,
1139.27,-0.00083,-41.45,,,,,,,
1139.3,-0.0008,-37.9,,,,,,,
1139.33,-0.00078,-34.52,,,,,,,
1139.35,-0.00075,-31.28,,,,,,,
1139.38,-0.00073,-28.04,,,,,,,
1139.41,-0.0007,-24.7,,,,,,,
1139.44,-0.00068,-21.47,,,,,,,
1139.46,-0.00065,-18.24,,,,,,,
1139.49,-0.00063,-14.65,,,,,,,
1139.52,-0.0006,-11.56,,,,,,,
1139.55,-0.00058,-8.42,,,,,,,
1139.58,-0.00055,-5.33,,,,,,,
1139.61,-0.00052,-2.09,,,,,,,
1139.63,-0.0005,1.16,,,,,,,
1139.66,-0.00047,4.37,,,,,,,
1139.7,-0.00045,7.57,,,,,,,
1139.71,-0.00043,9.72,,,,,,,
1139.72,-0.00042,10.69,,,,,,,
1139.75,-0.0004,13.72,,,,,,,
1139.77,-0.00037,16.94,,,,,,,
1139.8,-0.00035,20.14,,,,,,,
1139.84,-0.00032,23.25,,,,,,,
1139.86,-0.0003,26.34,,,,,,,
1139.89,-0.00027,29.6,,,,,,,
1139.92,-0.00024,32.7,,,,,,,
2924.91,-0.00021,41.56,,,,,,,
2924.95,-0.00019,43.61,,,,,,,
2924.98,-0.00016,46.03,,,,,,,
2925.02,-0.00014,48.53,,,,,,,
2925.06,-0.00011,50.93,,,,,,,
2925.1,-9e-05,53.4,,,,,,,
2925.14,-6e-05,56.34,,,,,,,
2925.17,-3e-05,59.33,,,,,,,
2925.2,-1e-05,62.22,,,,,,,
2925.23,2e-05,65.02,,,,,,,
2925.26,4e-05,67.92,,,,,,,
2925.28,7e-05,70.79,,,,,,,
2925.3,9e-05,73.83,,,,,,,
2925.34,0.00012,76.84,,,,,,,
2925.36,0.00014,79.58,,,,,,,
2925.38,0.00017,82.26,,,,,,,
2925.4,0.0002,85.11,,,,,,,
2925.42,0.00022,87.71,,,,,,,
2925.45,0.00025,90.06,,,,,,,
2925.48,0.00027,92.57,,,,,,,
2925.49,0.0003,94.73,,,,,,,
2925.52,0.00032,96.96,,,,,,,
2925.55,0.00035,99.13,,,,,,,
2925.57,0.00037,101.43,,,,,,,
2925.6,0.0004,103.35,,,,,,,
2925.63,0.00042,105.52,,,,,,,
2925.66,0.00045,107.84,,,,,,,
2925.69,0.00047,109.65,,,,,,,
2925.71,0.00049,111.36,,,,,,,
2925.72,0.0005,111.73,,,,,,,
2925.75,0.00053,114.05,,,,,,,
2925.78,0.00055,116.16,,,,,,,
2925.81,0.00058,118.27,,,,,,,
2925.84,0.0006,120.29,,,,,,,
2925.87,0.00063,122.41,,,,,,,
2925.89,0.00065,124.38,,,,,,,
2925.92,0.00068,126.24,,,,,,,
2925.95,0.0007,128.38,,,,,,,
2925.98,0.00073,130.29,,,,,,,
2926.0,0.00075,132.24,,,,,,,
2926.02,0.00078,134.2,,,,,,,
2926.05,0.00081,136.14,,,,,,,
2926.07,0.00083,138.27,,,,,,,
2926.09,0.00086,140.39,,,,,,,
2926.12,0.00088,142.27,,,,,,,
2926.14,0.00091,144.39,,,,,,,
2926.16,0.00093,146.59,,,,,,,
2926.18,0.00096,148.61,,,,,,,
2926.2,0.00098,150.62,,,,,,,
2926.21,0.00101,152.67,,,,,,,
2926.23,0.00104,154.7,,,,,,,
2926.24,0.00106,156.61,,,,,,,
2926.27,0.00109,158.46,,,,,,,
2926.28,0.00111,160.33,,,,,,,
2926.3,0.00114,162.11,,,,,,,
2926.31,0.00116,163.83,,,,,,,
2926.33,0.00119,165.51,,,,,,,
2926.34,0.00122,167.13,,,,,,,
2926.36,0.00124,168.69,,,,,,,
2926.38,0.00127,166.9,,,,,,,
2926.39,0.00129,167.63,,,,,,,
2926.4,0.00132,168.51,,,,,,,
2926.41,0.00135,169.35,,,,,,,
2926.42,0.00137,169.96,,,,,,,
2926.43,0.0014,170.55,,,,,,,
2926.45,0.00142,170.9,,,,,,,
2926.47,0.00145,170.65,,,,,,,
2926.49,0.00147,169.76,,,,,,,
2926.52,0.0015,167.11,,,,,,,
2926.64,0.00147,146.87,,,,,,,
2926.67,0.00145,140.94,,,,,,,
2926.7,0.00142,135.54,,,,,,,
2926.71,0.0014,131.48,,,,,,,
2926.72,0.0014,130.47,,,,,,,
2926.73,0.00137,125.78,,,,,,,
2926.76,0.00135,121.4,,,,,,,
2926.77,0.00132,117.14,,,,,,,
2926.8,0.0013,112.94,,,,,,,
2926.81,0.00127,108.88,,,,,,,
2926.84,0.00124,104.82,,,,,,,
2926.86,0.00122,100.71,,,,,,,
2926.88,0.00119,96.94,,,,,,,
2926.9,0.00117,92.95,,,,,,,
2926.92,0.00114,89.0,,,,,,,
2926.95,0.00112,85.25,,,,,,,
2926.97,0.00109,81.45,,,,,,,
2926.99,0.00106,77.63,,,,,,,
2927.02,0.00104,73.76,,,,,,,
2927.04,0.00101,70.04,,,,,,,
2927.07,0.00099,66.32,,,,,,,
2927.09,0.00096,62.72,,,,,,,
2927.12,0.00094,58.92,,,,,,,
2927.15,0.00091,55.22,,,,,,,
2927.17,0.00089,51.57,,,,,,,
2927.2,0.00086,48.11,,,,,,,
2927.23,0.00084,44.7,,,,,,,
2927.26,0.00081,41.04,,,,,,,
2927.28,0.00078,37.86,,,,,,,
2927.3,0.00076,34.53,,,,,,,
2927.34,0.00073,31.08,,,,,,,
2927.36,0.00071,27.79,,,,,,,
2927.39,0.00068,24.57,,,,,,,
2927.41,0.00066,21.4,,,,,,,
2927.45,0.00063,18.09,,,,,,,
2927.47,0.00061,15.02,,,,,,,
2927.5,0.00058,11.95,,,,,,,
2927.52,0.00056,8.71,,,,,,,
2927.55,0.00053,5.71,,,,,,,
2927.58,0.00051,2.63,,,,,,,
2927.61,0.00048,-0.43,,,,,,,
2927.64,0.00045,-3.8,,,,,,,
2927.66,0.00043,-6.97,,,,,,,
2927.7,0.0004,-9.89,,,,,,,
2927.71,0.00039,-11.88,,,,,,,
2927.73,0.00038,-12.96,,,,,,,
2927.75,0.00035,-15.94,,,,,,,
2927.78,0.00033,-18.58,,,,,,,
2927.81,0.0003,-20.62,,,,,,,
2927.85,0.00028,-22.92,,,,,,,
2927.91,0.00025,-25.42,,,,,,,
2927.95,0.00023,-27.84,,,,,,,
2928.0,0.0002,-30.61,,,,,,,
2928.04,0.00018,-33.95,,,,,,,
2928.07,0.00015,-37.36,,,,,,,
2928.09,0.00013,-40.62,,,,,,,
2928.12,0.0001,-43.57,,,,,,,
2928.14,7e-05,-46.53,,,,,,,
2928.16,5e-05,-49.43,,,,,,,
2928.18,2e-05,-52.4,,,,,,,
2928.2,-0.0,-55.07,,,,,,,
2928.23,-3e-05,-57.46,,,,,,,
2928.24,-5e-05,-60.1,,,,,,,
2928.27,-8e-05,-62.75,,,,,,,
2928.3,-0.0001,-65.21,,,,,,,
2928.32,-0.00013,-67.28,,,,,,,
2928.35,-0.00015,-69.81,,,,,,,
2928.38,-0.00018,-71.94,,,,,,,
2928.41,-0.00021,-74.35,,,,,,,
2928.43,-0.00023,-76.5,,,,,,,
2928.47,-0.00026,-78.8,,,,,,,
2928.49,-0.00028,-80.97,,,,,,,
2928.52,-0.00031,-82.9,,,,,,,
2928.55,-0.00033,-85.02,,,,,,,
2928.59,-0.00036,-87.34,,,,,,,
2928.62,-0.00038,-89.52,,,,,,,
2928.64,-0.00041,-91.5,,,,,,,
2928.67,-0.00043,-93.57,,,,,,,
2928.7,-0.00046,-95.59,,,,,,,
2928.71,-0.00047,-96.8,,,,,,,
2928.73,-0.00048,-98.15,,,,,,,
2928.76,-0.00051,-100.1,,,,,,,
2928.78,-0.00054,-102.5,,,,,,,
2928.81,-0.00056,-104.9,,,,,,,
2928.84,-0.00059,-107.7,,,,,,,
2928.86,-0.00061,-110.5,,,,,,,
2928.88,-0.00064,-113.1,,,,,,,
2928.9,-0.00066,-115.6,,,,,,,
2928.92,-0.00069,-118.1,,,,,,,
2928.94,-0.00071,-120.6,,,,,,,
2928.95,-0.00074,-123.2,,,,,,,
2928.98,-0.00076,-125.7,,,,,,,
2928.99,-0.00079,-128.0,,,,,,,
2929.01,-0.00082,-130.4,,,,,,,
2929.02,-0.00084,-132.8,,,,,,,
2929.04,-0.00087,-134.9,,,,,,,
2929.05,-0.00089,-137.1,,,,,,,
2929.07,-0.00092,-139.2,,,,,,,
2929.09,-0.00094,-141.4,,,,,,,
2929.1,-0.00097,-143.3,,,,,,,
2929.12,-0.00099,-145.4,,,,,,,
2929.13,-0.00102,-147.4,,,,,,,
2929.15,-0.00105,-149.3,,,,,,,
2929.16,-0.00107,-151.1,,,,,,,
2929.19,-0.0011,-152.8,,,,,,,
2929.2,-0.00112,-154.5,,,,,,,
2929.22,-0.00115,-156.1,,,,,,,
2929.23,-0.00118,-157.6,,,,,,,
2929.25,-0.0012,-159.0,,,,,,,
2929.27,-0.00123,-160.4,,,,,,,
2929.29,-0.00125,-161.6,,,,,,,
2929.3,-0.00128,-162.9,,,,,,,
2929.33,-0.0013,-161.6,,,,,,,
2929.34,-0.00133,-162.2,,,,,,,
2929.35,-0.00136,-163.1,,,,,,,
2929.37,-0.00138,-163.8,,,,,,,
2929.38,-0.00141,-164.5,,,,,,,
2929.41,-0.00143,-164.8,,,,,,,
2929.43,-0.00146,-164.9,,,,,,,
2929.45,-0.00148,-164.1,,,,,,,
2929.49,-0.00151,-161.5,,,,,,,
2929.61,-0.00148,-141.1,,,,,,,
2929.64,-0.00146,-134.8,,,,,,,
2929.66,-0.00143,-129.4,,,,,,,
2929.68,-0.00141,-124.7,,,,,,,
2929.7,-0.00138,-120.4,,,,,,,
2929.71,-0.00137,-118.3,,,,,,,
2929.72,-0.00135,-116.3,,,,,,,
2929.74,-0.00133,-111.5,,,,,,,
2929.76,-0.0013,-107.7,,,,,,,
2929.78,-0.00128,-103.6,,,,,,,
2929.8,-0.00125,-99.56,,,,,,,
2929.82,-0.00123,-95.67,,,,,,,
2929.84,-0.0012,-91.73,,,,,,,
2929.86,-0.00117,-88.12,,,,,,,
2929.88,-0.00115,-84.54,,,,,,,
2929.9,-0.00112,-80.71,,,,,,,
2929.93,-0.0011,-76.74,,,,,,,
2929.95,-0.00107,-73.25,,,,,,,
2929.97,-0.00105,-69.53,,,,,,,
2929.99,-0.00102,-66.21,,,,,,,
2930.02,-0.001,-62.19,,,,,,,
2930.05,-0.00097,-58.29,,,,,,,
2930.08,-0.00094,-54.75,,,,,,,
2930.1,-0.00092,-51.23,,,,,,,
2930.13,-0.00089,-47.57,,,,,,,
2930.16,-0.00087,-44.33,,,,,,,
2930.19,-0.00084,-40.79,,,,,,,
2930.21,-0.00082,-37.0,,,,,,,
2930.24,-0.00079,-33.21,,,,,,,
2930.27,-0.00077,-29.71,,,,,,,
2930.3,-0.00074,-26.11,,,,,,,
2930.33,-0.00072,-22.69,,,,,,,
2930.36,-0.00069,-19.36,,,,,,,
2930.38,-0.00066,-16.05,,,,,,,
2930.41,-0.00064,-12.67,,,,,,,
2930.45,-0.00061,-9.37,,,,,,,
2930.47,-0.00059,-6.0,,,,,,,
2930.5,-0.00056,-2.54,,,,,,,
2930.52,-0.00054,0.76,,,,,,,
2930.55,-0.00051,3.69,,,,,,,
2930.59,-0.00048,7.05,,,,,,,
2930.61,-0.00046,10.4,,,,,,,
2930.63,-0.00043,13.28,,,,,,,
2930.66,-0.00041,16.43,,,,,,,
2930.7,-0.00038,19.76,,,,,,,
2930.71,-0.00036,21.75,,,,,,,
2930.72,-0.00036,22.63,,,,,,,
2930.74,-0.00033,25.59,,,,,,,
2930.77,-0.00031,28.38,,,,,,,
2930.8,-0.00028,31.18,,,,,,,
2930.83,-0.00025,34.17,,,,,,,
5909.75,-0.00023,34.05,,,,,,,
5909.78,-0.00021,36.95,,,,,,,
5909.81,-0.00018,39.47,,,,,,,
5909.84,-0.00015,41.91,,,,,,,
5909.88,-0.00013,44.51,,,,,,,
5909.93,-0.0001,46.95,,,,,,,
5909.97,-8e-05,49.67,,,,,,,
5910.01,-5e-05,52.46,,,,,,,
5910.05,-3e-05,54.74,,,,,,,
5910.09,-0.0,57.87,,,,,,,
5910.11,2e-05,61.01,,,,,,,
5910.14,5e-05,63.88,,,,,,,
5910.16,7e-05,66.92,,,,,,,
5910.19,0.0001,69.71,,,,,,,
5910.21,0.00012,72.46,,,,,,,
5910.23,0.00015,75.29,,,,,,,
5910.26,0.00018,78.42,,,,,,,
5910.28,0.0002,81.14,,,,,,,
5910.3,0.00023,83.81,,,,,,,
5910.33,0.00025,86.37,,,,,,,
5910.35,0.00028,88.9,,,,,,,
5910.38,0.0003,91.45,,,,,,,
5910.4,0.00033,93.77,,,,,,,
5910.42,0.00035,96.12,,,,,,,
5910.45,0.00038,98.25,,,,,,,
5910.48,0.0004,100.59,,,,,,,
5910.51,0.00043,102.74,,,,,,,
5910.53,0.00045,104.77,,,,,,,
5910.56,0.00048,106.97,,,,,,,
5910.59,0.00051,109.11,,,,,,,
5910.63,0.00053,111.25,,,,,,,
5910.66,0.00056,113.23,,,,,,,
5910.69,0.00058,115.45,,,,,,,
5910.71,0.0006,117.22,,,,,,,
5910.71,0.00061,117.43,,,,,,,
5910.74,0.00063,119.65,,,,,,,
5910.77,0.00066,121.71,,,,,,,
5910.8,0.00068,123.85,,,,,,,
5910.83,0.00071,126.03,,,,,,,
5910.86,0.00073,128.16,,,,,,,
5910.88,0.00076,130.15,,,,,,,
5910.91,0.00078,132.24,,,,,,,
5910.94,0.00081,134.11,,,,,,,
5910.96,0.00084,136.38,,,,,,,
5910.98,0.00086,138.59,,,,,,,
5911.01,0.00089,140.69,,,,,,,
5911.03,0.00091,142.99,,,,,,,
5911.05,0.00094,145.11,,,,,,,
5911.07,0.00096,147.44,,,,,,,
5911.09,0.00099,149.68,,,,,,,
5911.11,0.00101,151.7,,,,,,,
5911.13,0.00104,153.95,,,,,,,
5911.14,0.00107,155.97,,,,,,,
5911.16,0.00109,157.97,,,,,,,
5911.17,0.00112,159.98,,,,,,,
5911.19,0.00114,161.65,,,,,,,
5911.2,0.00117,163.49,,,,,,,
5911.22,0.00119,165.16,,,,,,,
5911.23,0.00122,166.81,,,,,,,
5911.25,0.00125,168.45,,,,,,,
5911.27,0.00127,169.91,,,,,,,
5911.28,0.0013,171.33,,,,,,,
5911.3,0.00132,168.82,,,,,,,
5911.31,0.00135,169.29,,,,,,,
5911.32,0.00138,169.57,,,,,,,
5911.33,0.0014,169.97,,,,,,,
5911.34,0.00143,170.06,,,,,,,
5911.36,0.00145,169.59,,,,,,,
5911.39,0.00148,167.96,,,,,,,
5911.54,0.00145,143.81,,,,,,,
5911.56,0.00143,137.8,,,,,,,
5911.59,0.0014,132.64,,,,,,,
5911.6,0.00138,128.0,,,,,,,
5911.63,0.00135,123.68,,,,,,,
5911.64,0.00133,119.29,,,,,,,
5911.66,0.0013,114.66,,,,,,,
5911.68,0.00128,110.49,,,,,,,
5911.7,0.00125,106.21,,,,,,,
5911.71,0.00124,104.61,,,,,,,
5911.73,0.00123,102.25,,,,,,,
5911.74,0.0012,98.02,,,,,,,
5911.77,0.00117,94.33,,,,,,,
5911.79,0.00115,90.3,,,,,,,
5911.81,0.00112,86.26,,,,,,,
5911.84,0.0011,82.55,,,,,,,
5911.85,0.00107,78.69,,,,,,,
5911.88,0.00104,74.88,,,,,,,
5911.9,0.00102,71.43,,,,,,,
5911.93,0.00099,67.8,,,,,,,
5911.95,0.00097,64.11,,,,,,,
5911.98,0.00094,60.66,,,,,,,
5912.0,0.00092,57.23,,,,,,,
5912.02,0.00089,53.82,,,,,,,
5912.05,0.00087,50.24,,,,,,,
5912.08,0.00084,46.73,,,,,,,
5912.11,0.00082,43.18,,,,,,,
5912.14,0.00079,39.72,,,,,,,
5912.16,0.00076,36.34,,,,,,,
5912.2,0.00074,33.06,,,,,,,
5912.23,0.00071,29.43,,,,,,,
5912.25,0.00069,26.32,,,,,,,
5912.29,0.00066,22.31,,,,,,,
5912.31,0.00064,19.4,,,,,,,
5912.34,0.00061,16.35,,,,,,,
5912.37,0.00058,12.71,,,,,,,
5912.4,0.00056,9.62,,,,,,,
5912.42,0.00053,6.19,,,,,,,
5912.45,0.00051,2.79,,,,,,,
5912.48,0.00048,-0.19,,,,,,,
5912.51,0.00046,-3.52,,,,,,,
5912.54,0.00043,-6.7,,,,,,,
5912.57,0.00041,-9.88,,,,,,,
5912.59,0.00038,-12.81,,,,,,,
5912.63,0.00036,-16.01,,,,,,,
5912.65,0.00033,-18.71,,,,,,,
5912.69,0.0003,-21.02,,,,,,,
5912.71,0.00029,-22.47,,,,,,,
5912.73,0.00028,-23.18,,,,,,,
5912.78,0.00025,-25.69,,,,,,,
5912.84,0.00023,-28.73,,,,,,,
5912.88,0.0002,-31.93,,,,,,,
5912.92,0.00018,-35.29,,,,,,,
5912.95,0.00015,-39.27,,,,,,,
5912.97,0.00013,-42.41,,,,,,,
5912.99,0.0001,-45.38,,,,,,,
5913.02,7e-05,-48.4,,,,,,,
5913.04,5e-05,-51.54,,,,,,,
5913.05,2e-05,-54.09,,,,,,,
5913.08,-0.0,-56.85,,,,,,,
5913.1,-3e-05,-59.53,,,,,,,
5913.13,-5e-05,-62.06,,,,,,,
5913.15,-8e-05,-64.65,,,,,,,
5913.17,-0.0001,-67.07,,,,,,,
5913.2,-0.00013,-69.26,,,,,,,
5913.23,-0.00015,-71.73,,,,,,,
5913.26,-0.00018,-74.0,,,,,,,
5913.28,-0.00021,-75.99,,,,,,,
5913.3,-0.00023,-77.95,,,,,,,
5913.34,-0.00026,-80.18,,,,,,,
5913.37,-0.00028,-82.33,,,,,,,
5913.4,-0.00031,-84.18,,,,,,,
5913.43,-0.00033,-86.18,,,,,,,
5913.46,-0.00036,-88.49,,,,,,,
5913.48,-0.00038,-90.34,,,,,,,
5913.52,-0.00041,-92.26,,,,,,,
5913.55,-0.00043,-94.35,,,,,,,
5913.57,-0.00046,-96.56,,,,,,,
5913.6,-0.00049,-98.86,,,,,,,
5913.63,-0.00051,-101.1,,,,,,,
5913.66,-0.00054,-103.4,,,,,,,
5913.69,-0.00056,-106.1,,,,,,,
5913.71,-0.00059,-108.9,,,,,,,
5913.71,-0.00059,-109.3,,,,,,,
5913.73,-0.00061,-111.4,,,,,,,
5913.75,-0.00064,-114.0,,,,,,,
5913.77,-0.00066,-116.6,,,,,,,
5913.79,-0.00069,-119.3,,,,,,,
5913.8,-0.00071,-121.7,,,,,,,
5913.82,-0.00074,-124.2,,,,,,,
5913.84,-0.00077,-126.8,,,,,,,
5913.86,-0.00079,-128.9,,,,,,,
5913.88,-0.00082,-131.3,,,,,,,
5913.89,-0.00084,-133.6,,,,,,,
5913.91,-0.00087,-135.7,,,,,,,
5913.92,-0.0009,-137.8,,,,,,,
5913.94,-0.00092,-140.0,,,,,,,
5913.95,-0.00095,-142.2,,,,,,,
5913.97,-0.00097,-144.0,,,,,,,
5913.98,-0.001,-146.2,,,,,,,
5914.01,-0.00102,-148.1,,,,,,,
5914.02,-0.00105,-149.6,,,,,,,
5914.04,-0.00108,-151.5,,,,,,,
5914.05,-0.0011,-153.3,,,,,,,
5914.07,-0.00113,-154.8,,,,,,,
5914.09,-0.00115,-156.3,,,,,,,
5914.1,-0.00118,-156.8,,,,,,,
5914.13,-0.0012,-158.1,,,,,,,
5914.14,-0.00123,-159.3,,,,,,,
5914.16,-0.00125,-160.4,,,,,,,
5914.18,-0.00128,-161.7,,,,,,,
5914.2,-0.00131,-162.8,,,,,,,
5914.21,-0.00133,-162.7,,,,,,,
5914.23,-0.00136,-163.2,,,,,,,
5914.24,-0.00138,-163.9,,,,,,,
5914.26,-0.00141,-164.4,,,,,,,
5914.27,-0.00143,-164.7,,,,,,,
5914.3,-0.00146,-164.7,,,,,,,
5914.33,-0.00148,-163.6,,,,,,,
5914.37,-0.00151,-160.5,,,,,,,
5914.48,-0.00148,-143.6,,,,,,,
5914.5,-0.00146,-137.1,,,,,,,
5914.52,-0.00143,-132.1,,,,,,,
5914.55,-0.00141,-126.6,,,,,,,
5914.57,-0.00138,-121.9,,,,,,,
5914.59,-0.00136,-117.8,,,,,,,
5914.61,-0.00133,-113.0,,,,,,,
5914.63,-0.0013,-109.2,,,,,,,
5914.65,-0.00128,-105.1,,,,,,,
5914.67,-0.00125,-100.9,,,,,,,
5914.69,-0.00123,-97.31,,,,,,,
5914.71,-0.0012,-92.94,,,,,,,
5914.71,-0.0012,-92.74,,,,,,,
5914.73,-0.00118,-89.43,,,,,,,
5914.75,-0.00115,-85.48,,,,,,,
5914.77,-0.00113,-82.07,,,,,,,
5914.8,-0.0011,-78.36,,,,,,,
5914.82,-0.00107,-74.53,,,,,,,
5914.84,-0.00105,-70.98,,,,,,,
5914.87,-0.00102,-67.47,,,,,,,
5914.89,-0.001,-63.72,,,,,,,
5914.91,-0.00097,-60.19,,,,,,,
5914.95,-0.00095,-56.05,,,,,,,
5914.97,-0.00092,-52.84,,,,,,,
5915.0,-0.00089,-49.0,,,,,,,
5915.02,-0.00087,-45.72,,,,,,,
5915.05,-0.00084,-41.88,,,,,,,
5915.09,-0.00082,-38.33,,,,,,,
5915.11,-0.00079,-35.14,,,,,,,
5915.14,-0.00077,-31.45,,,,,,,
5915.16,-0.00074,-28.14,,,,,,,
5915.2,-0.00072,-24.8,,,,,,,
5915.22,-0.00069,-21.53,,,,,,,
5915.25,-0.00067,-18.15,,,,,,,
5915.27,-0.00064,-14.67,,,,,,,
5915.3,-0.00061,-11.54,,,,,,,
5915.34,-0.00059,-8.15,,,,,,,
5915.36,-0.00056,-4.91,,,,,,,
5915.39,-0.00054,-1.51,,,,,,,
5915.41,-0.00051,1.56,,,,,,,
5915.45,-0.00049,5.01,,,,,,,
5915.48,-0.00046,8.21,,,,,,,
5915.5,-0.00044,11.05,,,,,,,
5915.53,-0.00041,14.17,,,,,,,
5915.55,-0.00039,17.28,,,,,,,
5915.59,-0.00036,20.36,,,,,,,
5915.61,-0.00033,23.47,,,,,,,
5915.64,-0.00031,26.4,,,,,,,
5915.66,-0.00028,29.11,,,,,,,
5915.69,-0.00026,31.89,,,,,,,
5915.71,-0.00024,34.2,,,,,,,
5915.71,-0.00023,34.54,,,,,,,
11879.5,-0.00023,36.14,,,,,,,
11879.52,-0.0002,38.68,,,,,,,
11879.55,-0.00018,40.95,,,,,,,
11879.59,-0.00015,42.95,,,,,,,
11879.63,-0.00013,45.34,,,,,,,
11879.67,-0.0001,47.55,,,,,,,
11879.71,-8e-05,49.93,,,,,,,
11879.71,-7e-05,50.12,,,,,,,
11879.75,-5e-05,52.17,,,,,,,
11879.78,-3e-05,54.65,,,,,,,
11879.82,0.0,57.79,,,,,,,
11879.85,3e-05,60.64,,,,,,,
11879.88,5e-05,63.53,,,,,,,
11879.9,8e-05,66.28,,,,,,,
11879.93,0.0001,68.95,,,,,,,
11879.95,0.00013,71.61,,,,,,,
11879.98,0.00015,74.46,,,,,,,
11880.0,0.00018,77.15,,,,,,,
11880.02,0.00021,79.75,,,,,,,
11880.05,0.00023,82.26,,,,,,,
11880.07,0.00026,84.66,,,,,,,
11880.09,0.00028,87.13,,,,,,,
11880.12,0.00031,89.58,,,,,,,
11880.14,0.00033,91.81,,,,,,,
11880.16,0.00036,93.88,,,,,,,
11880.19,0.00038,95.92,,,,,,,
11880.22,0.00041,97.92,,,,,,,
11880.24,0.00044,100.06,,,,,,,
11880.27,0.00046,101.99,,,,,,,
11880.3,0.00049,104.02,,,,,,,
11880.34,0.00051,106.16,,,,,,,
11880.37,0.00054,108.2,,,,,,,
11880.4,0.00056,110.25,,,,,,,
11880.43,0.00059,112.48,,,,,,,
11880.46,0.00061,114.39,,,,,,,
11880.48,0.00064,116.41,,,,,,,
11880.52,0.00067,118.41,,,,,,,
11880.54,0.00069,120.37,,,,,,,
11880.57,0.00072,122.4,,,,,,,
11880.6,0.00074,124.42,,,,,,,
11880.63,0.00077,126.27,,,,,,,
11880.65,0.00079,128.16,,,,,,,
11880.67,0.00082,129.91,,,,,,,
11880.7,0.00084,131.74,,,,,,,
11880.71,0.00086,132.88,,,,,,,
11880.73,0.00087,133.79,,,,,,,
11880.74,0.00089,135.89,,,,,,,
11880.77,0.00092,138.19,,,,,,,
11880.79,0.00095,140.16,,,,,,,
11880.8,0.00097,142.18,,,,,,,
11880.83,0.001,144.08,,,,,,,
11880.84,0.00102,146.32,,,,,,,
11880.87,0.00105,148.35,,,,,,,
11880.88,0.00107,150.22,,,,,,,
11880.9,0.0011,152.09,,,,,,,
11880.91,0.00113,154.1,,,,,,,
11880.93,0.00115,156.06,,,,,,,
11880.95,0.00118,157.84,,,,,,,
11880.96,0.0012,159.36,,,,,,,
11880.98,0.00123,160.91,,,,,,,
11880.99,0.00126,162.44,,,,,,,
11881.02,0.00128,163.99,,,,,,,
11881.03,0.00131,165.27,,,,,,,
11881.05,0.00133,166.47,,,,,,,
11881.06,0.00136,167.11,,,,,,,
11881.09,0.00139,167.35,,,,,,,
11881.11,0.00141,167.05,,,,,,,
11881.13,0.00144,165.81,,,,,,,
11881.17,0.00146,162.42,,,,,,,
11881.28,0.00144,143.67,,,,,,,
11881.31,0.00141,137.38,,,,,,,
11881.34,0.00139,131.74,,,,,,,
11881.36,0.00136,126.8,,,,,,,
11881.38,0.00134,122.09,,,,,,,
11881.41,0.00131,117.4,,,,,,,
11881.43,0.00128,113.18,,,,,,,
11881.45,0.00126,108.78,,,,,,,
11881.47,0.00123,104.64,,,,,,,
11881.48,0.00121,100.62,,,,,,,
11881.51,0.00118,96.57,,,,,,,
11881.53,0.00115,92.71,,,,,,,
11881.55,0.00113,88.92,,,,,,,
11881.57,0.0011,85.14,,,,,,,
11881.59,0.00108,81.41,,,,,,,
11881.62,0.00105,77.85,,,,,,,
11881.64,0.00103,74.3,,,,,,,
11881.66,0.001,70.59,,,,,,,
11881.69,0.00098,66.92,,,,,,,
11881.71,0.00095,63.69,,,,,,,
11881.71,0.00095,63.32,,,,,,,
11881.74,0.00092,59.44,,,,,,,
11881.77,0.0009,55.87,,,,,,,
11881.8,0.00087,52.36,,,,,,,
11881.82,0.00085,48.79,,,,,,,
11881.85,0.00082,45.29,,,,,,,
11881.88,0.0008,41.48,,,,,,,
11881.91,0.00077,37.97,,,,,,,
11881.94,0.00075,34.58,,,,,,,
11881.96,0.00072,31.2,,,,,,,
11881.99,0.0007,27.73,,,,,,,
11882.02,0.00067,24.7,,,,,,,
11882.05,0.00065,21.26,,,,,,,
11882.07,0.00062,18.0,,,,,,,
11882.1,0.0006,14.62,,,,,,,
11882.13,0.00057,11.38,,,,,,,
11882.16,0.00054,8.2,,,,,,,
11882.18,0.00052,5.04,,,,,,,
11882.21,0.00049,1.8,,,,,,,
11882.24,0.00047,-1.44,,,,,,,
11882.27,0.00044,-4.72,,,,,,,
11882.3,0.00042,-7.63,,,,,,,
11882.33,0.00039,-10.97,,,,,,,
11882.35,0.00037,-13.53,,,,,,,
11882.38,0.00034,-16.69,,,,,,,
11882.41,0.00032,-19.25,,,,,,,
11882.45,0.00029,-21.53,,,,,,,
11882.49,0.00026,-23.54,,,,,,,
11882.55,0.00024,-26.27,,,,,,,
11882.6,0.00021,-28.94,,,,,,,
11882.65,0.00019,-32.33,,,,,,,
11882.68,0.00016,-36.04,,,,,,,
11882.71,0.00014,-39.78,,,,,,,
11882.71,0.00013,-40.46,,,,,,,
11882.73,0.00011,-42.96,,,,,,,
11882.75,9e-05,-45.77,,,,,,,
11882.77,6e-05,-48.79,,,,,,,
11882.79,4e-05,-51.58,,,,,,,
11882.81,1e-05,-54.17,,,,,,,
11882.84,-2e-05,-56.82,,,,,,,
11882.85,-4e-05,-59.41,,,,,,,
11882.88,-7e-05,-61.93,,,,,,,
11882.9,-9e-05,-64.24,,,,,,,
11882.93,-0.00012,-66.87,,,,,,,
11882.95,-0.00015,-69.11,,,,,,,
11882.98,-0.00017,-71.22,,,,,,,
11883.01,-0.0002,-73.28,,,,,,,
11883.03,-0.00022,-75.4,,,,,,,
11883.06,-0.00025,-77.45,,,,,,,
11883.09,-0.00027,-79.64,,,,,,,
11883.13,-0.0003,-81.79,,,,,,,
11883.16,-0.00032,-84.14,,,,,,,
11883.2,-0.00035,-86.42,,,,,,,
11883.23,-0.00037,-88.4,,,,,,,
11883.26,-0.0004,-90.61,,,,,,,
11883.29,-0.00042,-93.08,,,,,,,
11883.32,-0.00045,-95.8,,,,,,,
11883.35,-0.00047,-98.02,,,,,,,
11883.38,-0.0005,-100.4,,,,,,,
11883.41,-0.00052,-102.9,,,,,,,
11883.43,-0.00055,-105.6,,,,,,,
11883.45,-0.00058,-108.4,,,,,,,
11883.48,-0.0006,-111.2,,,,,,,
11883.49,-0.00063,-113.9,,,,,,,
11883.51,-0.00065,-116.4,,,,,,,
11883.52,-0.00068,-119.0,,,,,,,
11883.55,-0.0007,-121.5,,,,,,,
11883.56,-0.00073,-123.9,,,,,,,
11883.58,-0.00075,-126.3,,,,,,,
11883.59,-0.00078,-128.5,,,,,,,
11883.61,-0.00081,-131.0,,,,,,,
11883.63,-0.00083,-133.4,,,,,,,
11883.64,-0.00086,-135.8,,,,,,,
11883.66,-0.00088,-137.8,,,,,,,
11883.67,-0.00091,-139.9,,,,,,,
11883.69,-0.00093,-142.2,,,,,,,
11883.7,-0.00096,-144.1,,,,,,,
11883.71,-0.00097,-145.1,,,,,,,
11883.72,-0.00099,-146.2,,,,,,,
11883.73,-0.00101,-148.0,,,,,,,
11883.75,-0.00104,-149.7,,,,,,,
11883.77,-0.00106,-151.6,,,,,,,
11883.78,-0.00109,-153.4,,,,,,,
11883.8,-0.00112,-155.2,,,,,,,
11883.82,-0.00114,-156.6,,,,,,,
11883.84,-0.00117,-158.0,,,,,,,
11883.85,-0.00119,-159.4,,,,,,,
11883.87,-0.00122,-160.6,,,,,,,
11883.88,-0.00124,-161.7,,,,,,,
11883.91,-0.00127,-162.9,,,,,,,
11883.92,-0.00129,-163.9,,,,,,,
11883.95,-0.00132,-164.9,,,,,,,
11883.96,-0.00135,-165.7,,,,,,,
11883.98,-0.00137,-166.3,,,,,,,
11884.0,-0.0014,-167.0,,,,,,,
11884.02,-0.00142,-167.4,,,,,,,
11884.05,-0.00145,-167.3,,,,,,,
11884.07,-0.00148,-166.4,,,,,,,
11884.1,-0.0015,-164.3,,,,,,,
11884.24,-0.00148,-140.3,,,,,,,
11884.27,-0.00145,-135.0,,,,,,,
11884.29,-0.00143,-130.1,,,,,,,
11884.3,-0.0014,-125.4,,,,,,,
11884.33,-0.00137,-120.9,,,,,,,
11884.34,-0.00135,-116.5,,,,,,,
11884.37,-0.00132,-112.2,,,,,,,
11884.38,-0.0013,-108.1,,,,,,,
11884.41,-0.00127,-104.2,,,,,,,
11884.42,-0.00124,-100.5,,,,,,,
11884.44,-0.00122,-96.76,,,,,,,
11884.46,-0.00119,-93.04,,,,,,,
11884.48,-0.00117,-89.45,,,,,,,
11884.5,-0.00114,-85.82,,,,,,,
11884.52,-0.00112,-82.42,,,,,,,
11884.55,-0.00109,-78.89,,,,,,,
11884.57,-0.00107,-75.43,,,,,,,
11884.59,-0.00104,-71.81,,,,,,,
11884.62,-0.00101,-68.38,,,,,,,
11884.64,-0.00099,-64.88,,,,,,,
11884.66,-0.00096,-61.33,,,,,,,
11884.7,-0.00094,-58.11,,,,,,,
11884.71,-0.00092,-55.38,,,,,,,
11884.72,-0.00091,-54.51,,,,,,,
11884.75,-0.00089,-51.1,,,,,,,
11884.77,-0.00086,-47.66,,,,,,,
11884.8,-0.00084,-44.0,,,,,,,
11884.84,-0.00081,-40.51,,,,,,,
11884.86,-0.00078,-37.21,,,,,,,
11884.89,-0.00076,-33.8,,,,,,,
11884.91,-0.00073,-30.2,,,,,,,
11884.95,-0.00071,-26.91,,,,,,,
11884.98,-0.00068,-23.59,,,,,,,
11885.0,-0.00066,-20.28,,,,,,,
11885.03,-0.00063,-16.83,,,,,,,
11885.05,-0.00061,-13.7,,,,,,,
11885.09,-0.00058,-10.28,,,,,,,
11885.12,-0.00056,-6.89,,,,,,,
11885.14,-0.00053,-3.67,,,,,,,
11885.17,-0.0005,-0.05,,,,,,,
11885.2,-0.00048,3.18,,,,,,,
11885.23,-0.00045,6.08,,,,,,,
11885.26,-0.00043,9.66,,,,,,,
11885.29,-0.0004,12.88,,,,,,,
11885.31,-0.00038,15.86,,,,,,,
11885.34,-0.00035,18.96,,,,,,,
11885.37,-0.00033,22.13,,,,,,,
11885.39,-0.0003,24.9,,,,,,,
11885.41,-0.00027,27.89,,,,,,,
11885.45,-0.00025,30.81,,,,,,,
17843.27,-0.00023,30.64,,,,,,,
17843.3,-0.00021,33.7,,,,,,,
17843.32,-0.00018,36.52,,,,,,,
17843.35,-0.00016,39.41,,,,,,,
17843.38,-0.00013,41.81,,,,,,,
17843.41,-0.00011,44.01,,,,,,,
17843.45,-8e-05,46.52,,,,,,,
17843.5,-6e-05,49.13,,,,,,,
17843.54,-3e-05,51.51,,,,,,,
17843.58,-1e-05,54.11,,,,,,,
17843.62,2e-05,57.03,,,,,,,
17843.65,5e-05,60.24,,,,,,,
17843.68,7e-05,63.01,,,,,,,
17843.7,0.0001,65.88,,,,,,,
17843.71,0.00011,67.1,,,,,,,
17843.73,0.00012,68.74,,,,,,,
17843.75,0.00015,71.47,,,,,,,
17843.77,0.00017,74.45,,,,,,,
17843.8,0.0002,77.6,,,,,,,
17843.82,0.00022,80.12,,,,,,,
17843.84,0.00025,82.67,,,,,,,
17843.87,0.00027,85.18,,,,,,,
17843.88,0.0003,87.58,,,,,,,
17843.91,0.00033,89.89,,,,,,,
17843.93,0.00035,92.37,,,,,,,
17843.96,0.00038,94.53,,,,,,,
17843.98,0.0004,96.68,,,,,,,
17844.01,0.00043,98.85,,,,,,,
17844.04,0.00045,100.79,,,,,,,
17844.07,0.00048,103.09,,,,,,,
17844.09,0.0005,105.03,,,,,,,
17844.13,0.00053,107.09,,,,,,,
17844.16,0.00055,109.17,,,,,,,
17844.19,0.00058,111.02,,,,,,,
17844.22,0.00061,113.12,,,,,,,
17844.24,0.00063,115.08,,,,,,,
17844.27,0.00066,117.04,,,,,,,
17844.3,0.00068,118.98,,,,,,,
17844.33,0.00071,120.96,,,,,,,
17844.35,0.00073,122.96,,,,,,,
17844.38,0.00076,124.74,,,,,,,
17844.41,0.00078,126.75,,,,,,,
17844.43,0.00081,128.52,,,,,,,
17844.46,0.00083,130.28,,,,,,,
17844.48,0.00086,132.29,,,,,,,
17844.51,0.00089,134.3,,,,,,,
17844.54,0.00091,136.49,,,,,,,
17844.55,0.00094,138.72,,,,,,,
17844.58,0.00096,140.86,,,,,,,
17844.6,0.00099,143.17,,,,,,,
17844.62,0.00101,145.35,,,,,,,
17844.64,0.00104,147.29,,,,,,,
17844.66,0.00106,149.49,,,,,,,
17844.67,0.00109,151.43,,,,,,,
17844.69,0.00112,153.44,,,,,,,
17844.71,0.00114,155.33,,,,,,,
17844.71,0.00115,155.88,,,,,,,
17844.73,0.00117,157.22,,,,,,,
17844.74,0.00119,159.33,,,,,,,
17844.76,0.00122,161.13,,,,,,,
17844.77,0.00125,162.88,,,,,,,
17844.79,0.00127,164.49,,,,,,,
17844.8,0.0013,164.98,,,,,,,
17844.82,0.00132,166.16,,,,,,,
17844.84,0.00135,166.75,,,,,,,
17844.85,0.00137,167.22,,,,,,,
17844.88,0.0014,167.3,,,,,,,
17844.9,0.00143,166.45,,,,,,,
17844.95,0.00145,163.09,,,,,,,
17845.05,0.00143,145.59,,,,,,,
17845.09,0.0014,139.47,,,,,,,
17845.11,0.00138,134.09,,,,,,,
17845.13,0.00135,129.08,,,,,,,
17845.15,0.00132,124.61,,,,,,,
17845.17,0.0013,119.95,,,,,,,
17845.2,0.00127,115.87,,,,,,,
17845.21,0.00125,111.56,,,,,,,
17845.23,0.00122,107.14,,,,,,,
17845.26,0.0012,103.18,,,,,,,
17845.28,0.00117,99.2,,,,,,,
17845.3,0.00114,95.25,,,,,,,
17845.32,0.00112,91.45,,,,,,,
17845.34,0.00109,87.65,,,,,,,
17845.37,0.00107,84.01,,,,,,,
17845.39,0.00104,80.44,,,,,,,
17845.41,0.00102,76.69,,,,,,,
17845.44,0.00099,73.29,,,,,,,
17845.46,0.00096,69.62,,,,,,,
17845.49,0.00094,65.84,,,,,,,
17845.52,0.00091,62.4,,,,,,,
17845.54,0.00089,58.69,,,,,,,
17845.57,0.00086,55.45,,,,,,,
17845.59,0.00084,51.86,,,,,,,
17845.63,0.00081,48.38,,,,,,,
17845.65,0.00079,45.04,,,,,,,
17845.68,0.00076,41.57,,,,,,,
17845.71,0.00074,38.04,,,,,,,
17845.71,0.00073,37.65,,,,,,,
17845.74,0.00071,34.58,,,,,,,
17845.77,0.00068,31.26,,,,,,,
17845.8,0.00066,27.76,,,,,,,
17845.82,0.00063,24.4,,,,,,,
17845.85,0.00061,20.88,,,,,,,
17845.88,0.00058,17.54,,,,,,,
17845.91,0.00056,14.14,,,,,,,
17845.94,0.00053,11.01,,,,,,,
17845.97,0.00051,7.8,,,,,,,
17845.99,0.00048,4.52,,,,,,,
17846.02,0.00045,1.32,,,,,,,
17846.05,0.00043,-1.77,,,,,,,
17846.08,0.0004,-5.31,,,,,,,
17846.11,0.00038,-8.32,,,,,,,
17846.13,0.00035,-11.38,,,,,,,
17846.16,0.00033,-14.34,,,,,,,
17846.2,0.0003,-17.34,,,,,,,
17846.22,0.00028,-19.69,,,,,,,
17846.26,0.00025,-21.66,,,,,,,
17846.3,0.00023,-24.03,,,,,,,
17846.35,0.0002,-26.18,,,,,,,
17846.41,0.00018,-29.08,,,,,,,
17846.45,0.00015,-32.52,,,,,,,
17846.49,0.00013,-36.16,,,,,,,
17846.52,0.0001,-39.88,,,,,,,
17846.54,7e-05,-43.08,,,,,,,
17846.56,5e-05,-46.24,,,,,,,
17846.59,2e-05,-49.15,,,,,,,
17846.6,-0.0,-52.31,,,,,,,
17846.63,-3e-05,-55.21,,,,,,,
17846.65,-5e-05,-57.8,,,,,,,
17846.67,-8e-05,-60.63,,,,,,,
17846.7,-0.00011,-63.27,,,,,,,
17846.71,-0.00012,-64.82,,,,,,,
17846.72,-0.00013,-65.74,,,,,,,
17846.75,-0.00016,-68.35,,,,,,,
17846.77,-0.00018,-70.84,,,,,,,
17846.8,-0.00021,-73.21,,,,,,,
17846.83,-0.00023,-75.26,,,,,,,
17846.86,-0.00026,-77.6,,,,,,,
17846.89,-0.00029,-79.71,,,,,,,
17846.91,-0.00031,-81.67,,,,,,,
17846.95,-0.00034,-83.64,,,,,,,
17846.97,-0.00036,-85.71,,,,,,,
17847.0,-0.00039,-87.81,,,,,,,
17847.03,-0.00041,-89.9,,,,,,,
17847.06,-0.00044,-92.05,,,,,,,
17847.09,-0.00046,-94.02,,,,,,,
17847.12,-0.00049,-96.4,,,,,,,
17847.15,-0.00052,-98.51,,,,,,,
17847.18,-0.00054,-100.7,,,,,,,
17847.2,-0.00057,-102.9,,,,,,,
17847.23,-0.00059,-105.7,,,,,,,
17847.26,-0.00062,-108.5,,,,,,,
17847.27,-0.00064,-111.1,,,,,,,
17847.3,-0.00067,-113.8,,,,,,,
17847.31,-0.00069,-116.4,,,,,,,
17847.34,-0.00072,-118.7,,,,,,,
17847.35,-0.00074,-121.5,,,,,,,
17847.37,-0.00077,-123.8,,,,,,,
17847.38,-0.0008,-126.2,,,,,,,
17847.41,-0.00082,-128.8,,,,,,,
17847.42,-0.00085,-131.2,,,,,,,
17847.44,-0.00087,-133.4,,,,,,,
17847.45,-0.0009,-135.7,,,,,,,
17847.47,-0.00092,-138.1,,,,,,,
17847.48,-0.00095,-140.3,,,,,,,
17847.5,-0.00097,-142.5,,,,,,,
17847.52,-0.001,-144.9,,,,,,,
17847.54,-0.00103,-147.0,,,,,,,
17847.55,-0.00105,-148.9,,,,,,,
17847.57,-0.00108,-150.9,,,,,,,
17847.59,-0.0011,-152.8,,,,,,,
17847.6,-0.00113,-154.5,,,,,,,
17847.62,-0.00115,-155.9,,,,,,,
17847.63,-0.00118,-157.7,,,,,,,
17847.66,-0.00121,-159.2,,,,,,,
17847.67,-0.00123,-160.6,,,,,,,
17847.69,-0.00126,-161.2,,,,,,,
17847.71,-0.00128,-162.4,,,,,,,
17847.71,-0.00129,-162.7,,,,,,,
17847.72,-0.00131,-163.3,,,,,,,
17847.74,-0.00134,-164.3,,,,,,,
17847.76,-0.00136,-165.4,,,,,,,
17847.77,-0.00139,-166.2,,,,,,,
17847.8,-0.00141,-166.7,,,,,,,
17847.81,-0.00144,-166.8,,,,,,,
17847.84,-0.00146,-166.2,,,,,,,
17847.88,-0.00149,-164.4,,,,,,,
17848.01,-0.00146,-141.9,,,,,,,
17848.04,-0.00144,-136.8,,,,,,,
17848.05,-0.00141,-131.8,,,,,,,
17848.08,-0.00138,-127.1,,,,,,,
17848.1,-0.00136,-122.6,,,,,,,
17848.12,-0.00133,-118.4,,,,,,,
17848.13,-0.00131,-114.3,,,,,,,
17848.16,-0.00128,-110.0,,,,,,,
17848.18,-0.00126,-105.8,,,,,,,
17848.2,-0.00123,-101.8,,,,,,,
17848.22,-0.0012,-98.13,,,,,,,
17848.24,-0.00118,-94.25,,,,,,,
17848.26,-0.00115,-90.19,,,,,,,
17848.28,-0.00113,-86.27,,,,,,,
17848.3,-0.0011,-83.02,,,,,,,
17848.33,-0.00108,-79.41,,,,,,,
17848.35,-0.00105,-75.44,,,,,,,
17848.38,-0.00103,-71.82,,,,,,,
17848.4,-0.001,-68.04,,,,,,,
17848.43,-0.00098,-64.55,,,,,,,
17848.45,-0.00095,-60.78,,,,,,,
17848.48,-0.00092,-57.33,,,,,,,
17848.51,-0.0009,-54.01,,,,,,,
17848.53,-0.00087,-50.31,,,,,,,
17848.56,-0.00085,-46.93,,,,,,,
17848.59,-0.00082,-43.52,,,,,,,
17848.62,-0.0008,-40.12,,,,,,,
17848.64,-0.00077,-36.65,,,,,,,
17848.67,-0.00075,-33.36,,,,,,,
17848.7,-0.00072,-30.23,,,,,,,
17848.71,-0.00071,-28.42,,,,,,,
17848.73,-0.0007,-27.04,,,,,,,
17848.75,-0.00067,-23.65,,,,,,,
17848.78,-0.00064,-20.34,,,,,,,
17848.8,-0.00062,-17.12,,,,,,,
17848.84,-0.00059,-13.77,,,,,,,
17848.87,-0.00057,-10.3,,,,,,,
17848.9,-0.00054,-7.01,,,,,,,
17848.92,-0.00052,-3.72,,,,,,,
17848.95,-0.00049,-0.62,,,,,,,
17848.98,-0.00047,2.62,,,,,,,
17849.01,-0.00044,5.65,,,,,,,
17849.04,-0.00041,9.07,,,,,,,
17849.07,-0.00039,12.36,,,,,,,
17849.09,-0.00036,15.17,,,,,,,
17849.12,-0.00034,18.28,,,,,,,
17849.15,-0.00031,21.32,,,,,,,
17849.17,-0.00029,24.1,,,,,,,
17849.2,-0.00026,27.13,,,,,,,
17849.23,-0.00024,30.0,,,,,,,
29788.72,-0.00023,25.67,,,,,,,
29788.75,-0.0002,28.52,,,,,,,
29788.77,-0.00017,31.56,,,,,,,
29788.8,-0.00015,34.3,,,,,,,
29788.83,-0.00012,37.19,,,,,,,
29788.86,-0.0001,39.53,,,,,,,
29788.89,-7e-05,41.89,,,,,,,
29788.93,-5e-05,44.29,,,,,,,
29788.97,-2e-05,46.78,,,,,,,
29789.01,0.0,49.37,,,,,,,
29789.05,3e-05,51.67,,,,,,,
29789.1,5e-05,54.25,,,,,,,
29789.14,8e-05,57.53,,,,,,,
29789.17,0.0001,60.75,,,,,,,
29789.19,0.00013,63.44,,,,,,,
29789.22,0.00015,65.97,,,,,,,
29789.24,0.00018,68.56,,,,,,,
29789.26,0.0002,71.15,,,,,,,
29789.28,0.00023,73.71,,,,,,,
29789.3,0.00026,76.42,,,,,,,
29789.33,0.00028,79.1,,,,,,,
29789.35,0.00031,81.58,,,,,,,
29789.37,0.00033,83.99,,,,,,,
29789.39,0.00036,86.12,,,,,,,
29789.41,0.00038,88.39,,,,,,,
29789.43,0.00041,90.5,,,,,,,
29789.47,0.00043,92.61,,,,,,,
29789.49,0.00046,94.64,,,,,,,
29789.51,0.00048,96.79,,,,,,,
29789.54,0.00051,98.65,,,,,,,
29789.57,0.00054,100.61,,,,,,,
29789.6,0.00056,102.49,,,,,,,
29789.63,0.00059,104.38,,,,,,,
29789.66,0.00061,106.3,,,,,,,
29789.69,0.00064,108.23,,,,,,,
29789.72,0.00066,109.95,,,,,,,
29789.72,0.00066,110.14,,,,,,,
29789.75,0.00069,112.0,,,,,,,
29789.78,0.00071,113.9,,,,,,,
29789.8,0.00074,115.7,,,,,,,
29789.83,0.00076,117.62,,,,,,,
29789.86,0.00079,119.42,,,,,,,
29789.89,0.00082,121.2,,,,,,,
29789.91,0.00084,123.11,,,,,,,
29789.94,0.00087,125.1,,,,,,,
29789.97,0.00089,126.76,,,,,,,
29789.99,0.00092,128.53,,,,,,,
29790.01,0.00094,130.45,,,,,,,
29790.04,0.00097,132.6,,,,,,,
29790.06,0.00099,134.76,,,,,,,
29790.08,0.00102,136.85,,,,,,,
29790.11,0.00105,139.04,,,,,,,
29790.12,0.00107,140.97,,,,,,,
29790.14,0.0011,142.89,,,,,,,
29790.16,0.00112,144.89,,,,,,,
29790.18,0.00115,146.93,,,,,,,
29790.19,0.00117,148.79,,,,,,,
29790.21,0.0012,150.64,,,,,,,
29790.22,0.00122,152.44,,,,,,,
29790.24,0.00125,154.18,,,,,,,
29790.26,0.00127,155.69,,,,,,,
29790.28,0.0013,157.01,,,,,,,
29790.29,0.00133,158.01,,,,,,,
29790.31,0.00135,158.64,,,,,,,
29790.33,0.00138,158.72,,,,,,,
29790.36,0.0014,157.93,,,,,,,
29790.4,0.00143,154.78,,,,,,,
29790.51,0.0014,139.61,,,,,,,
29790.54,0.00138,133.6,,,,,,,
29790.57,0.00135,128.3,,,,,,,
29790.59,0.00133,123.88,,,,,,,
29790.61,0.0013,119.52,,,,,,,
29790.64,0.00128,115.22,,,,,,,
29790.65,0.00125,111.07,,,,,,,
29790.68,0.00122,107.11,,,,,,,
29790.7,0.0012,103.37,,,,,,,
29790.72,0.00118,100.34,,,,,,,
29790.72,0.00117,99.35,,,,,,,
29790.75,0.00115,95.6,,,,,,,
29790.76,0.00112,91.84,,,,,,,
29790.79,0.0011,88.16,,,,,,,
29790.81,0.00107,84.32,,,,,,,
29790.84,0.00104,80.73,,,,,,,
29790.86,0.00102,77.15,,,,,,,
29790.89,0.00099,73.62,,,,,,,
29790.91,0.00097,70.13,,,,,,,
29790.93,0.00094,66.85,,,,,,,
29790.96,0.00092,63.44,,,,,,,
29790.99,0.00089,60.0,,,,,,,
29791.01,0.00087,56.65,,,,,,,
29791.04,0.00084,52.85,,,,,,,
29791.08,0.00081,49.1,,,,,,,
29791.11,0.00079,45.66,,,,,,,
29791.13,0.00076,42.2,,,,,,,
29791.16,0.00074,38.76,,,,,,,
29791.18,0.00071,35.45,,,,,,,
29791.22,0.00069,32.13,,,,,,,
29791.25,0.00066,28.76,,,,,,,
29791.27,0.00064,25.28,,,,,,,
29791.3,0.00061,21.88,,,,,,,
29791.33,0.00059,18.55,,,,,,,
29791.36,0.00056,15.15,,,,,,,
29791.39,0.00054,12.05,,,,,,,
29791.41,0.00051,9.12,,,,,,,
29791.43,0.00049,5.93,,,,,,,
29791.47,0.00046,2.91,,,,,,,
29791.5,0.00044,-0.36,,,,,,,
29791.52,0.00041,-3.4,,,,,,,
29791.55,0.00038,-6.53,,,,,,,
29791.58,0.00036,-9.6,,,,,,,
29791.61,0.00033,-12.67,,,,,,,
29791.64,0.00031,-15.65,,,,,,,
29791.67,0.00028,-18.34,,,,,,,
29791.7,0.00026,-20.38,,,,,,,
29791.72,0.00024,-21.35,,,,,,,
29791.74,0.00023,-22.24,,,,,,,
29791.79,0.00021,-24.52,,,,,,,
29791.83,0.00018,-26.55,,,,,,,
29791.89,0.00016,-29.38,,,,,,,
29791.93,0.00013,-32.47,,,,,,,
29791.95,0.00011,-35.88,,,,,,,
29791.98,8e-05,-39.16,,,,,,,
29792.0,5e-05,-42.12,,,,,,,
29792.02,3e-05,-44.89,,,,,,,
29792.04,0.0,-47.69,,,,,,,
29792.07,-2e-05,-50.4,,,,,,,
29792.08,-5e-05,-53.16,,,,,,,
29792.11,-7e-05,-55.57,,,,,,,
29792.13,-0.0001,-58.1,,,,,,,
29792.15,-0.00012,-60.75,,,,,,,
29792.18,-0.00015,-63.16,,,,,,,
29792.21,-0.00018,-65.7,,,,,,,
29792.23,-0.0002,-67.79,,,,,,,
29792.26,-0.00023,-69.83,,,,,,,
29792.29,-0.00025,-72.08,,,,,,,
29792.32,-0.00028,-74.19,,,,,,,
29792.35,-0.0003,-76.32,,,,,,,
29792.38,-0.00033,-78.44,,,,,,,
29792.41,-0.00035,-80.58,,,,,,,
29792.44,-0.00038,-82.81,,,,,,,
29792.47,-0.00041,-84.9,,,,,,,
29792.5,-0.00043,-87.2,,,,,,,
29792.54,-0.00046,-89.46,,,,,,,
29792.57,-0.00048,-91.78,,,,,,,
29792.59,-0.00051,-93.9,,,,,,,
29792.62,-0.00053,-96.31,,,,,,,
29792.65,-0.00056,-98.47,,,,,,,
29792.68,-0.00058,-101.1,,,,,,,
29792.7,-0.00061,-103.7,,,,,,,
29792.72,-0.00062,-105.1,,,,,,,
29792.72,-0.00063,-106.3,,,,,,,
29792.75,-0.00066,-108.8,,,,,,,
29792.77,-0.00068,-111.6,,,,,,,
29792.79,-0.00071,-114.3,,,,,,,
29792.81,-0.00074,-116.9,,,,,,,
29792.83,-0.00076,-119.3,,,,,,,
29792.84,-0.00079,-121.7,,,,,,,
29792.86,-0.00081,-124.1,,,,,,,
29792.87,-0.00084,-126.3,,,,,,,
29792.89,-0.00087,-128.8,,,,,,,
29792.9,-0.00089,-130.8,,,,,,,
29792.92,-0.00092,-133.1,,,,,,,
29792.93,-0.00094,-135.3,,,,,,,
29792.95,-0.00097,-137.2,,,,,,,
29792.97,-0.00099,-139.3,,,,,,,
29792.98,-0.00102,-141.1,,,,,,,
29793.0,-0.00105,-143.1,,,,,,,
29793.01,-0.00107,-144.9,,,,,,,
29793.03,-0.0011,-146.5,,,,,,,
29793.04,-0.00112,-148.3,,,,,,,
29793.06,-0.00115,-149.8,,,,,,,
29793.08,-0.00117,-151.4,,,,,,,
29793.1,-0.0012,-153.0,,,,,,,
29793.11,-0.00123,-154.3,,,,,,,
29793.13,-0.00125,-155.6,,,,,,,
29793.15,-0.00128,-156.9,,,,,,,
29793.17,-0.0013,-158.2,,,,,,,
29793.18,-0.00133,-159.2,,,,,,,
29793.21,-0.00135,-160.3,,,,,,,
29793.23,-0.00138,-161.1,,,,,,,
29793.24,-0.0014,-161.6,,,,,,,
29793.26,-0.00143,-161.9,,,,,,,
29793.28,-0.00145,-162.0,,,,,,,
29793.31,-0.00148,-161.1,,,,,,,
29793.47,-0.00145,-137.8,,,,,,,
29793.49,-0.00143,-132.6,,,,,,,
29793.51,-0.0014,-127.2,,,,,,,
29793.54,-0.00138,-122.8,,,,,,,
29793.55,-0.00135,-118.5,,,,,,,
29793.58,-0.00133,-114.0,,,,,,,
29793.6,-0.0013,-110.0,,,,,,,
29793.61,-0.00127,-105.6,,,,,,,
29793.64,-0.00125,-101.6,,,,,,,
29793.65,-0.00122,-97.97,,,,,,,
29793.68,-0.0012,-94.05,,,,,,,
29793.7,-0.00117,-90.29,,,,,,,
29793.72,-0.00115,-86.96,,,,,,,
29793.72,-0.00115,-86.7,,,,,,,
29793.74,-0.00112,-83.17,,,,,,,
29793.76,-0.0011,-79.49,,,,,,,
29793.79,-0.00107,-75.83,,,,,,,
29793.81,-0.00104,-72.45,,,,,,,
29793.83,-0.00102,-69.01,,,,,,,
29793.86,-0.00099,-65.27,,,,,,,
29793.89,-0.00097,-61.82,,,,,,,
29793.91,-0.00094,-58.43,,,,,,,
29793.93,-0.00092,-55.15,,,,,,,
29793.97,-0.00089,-51.68,,,,,,,
29793.99,-0.00087,-48.24,,,,,,,
29794.02,-0.00084,-45.11,,,,,,,
29794.04,-0.00081,-41.79,,,,,,,
29794.08,-0.00079,-38.39,,,,,,,
29794.1,-0.00076,-35.12,,,,,,,
29794.13,-0.00074,-31.86,,,,,,,
29794.15,-0.00071,-28.59,,,,,,,
29794.18,-0.00069,-25.27,,,,,,,
29794.22,-0.00066,-21.79,,,,,,,
29794.25,-0.00064,-18.35,,,,,,,
29794.27,-0.00061,-15.19,,,,,,,
29794.3,-0.00059,-11.9,,,,,,,
29794.33,-0.00056,-8.62,,,,,,,
29794.36,-0.00053,-5.33,,,,,,,
29794.39,-0.00051,-2.31,,,,,,,
29794.41,-0.00048,0.83,,,,,,,
29794.44,-0.00046,3.99,,,,,,,
29794.47,-0.00043,6.87,,,,,,,
29794.49,-0.00041,9.77,,,,,,,
29794.51,-0.00038,12.82,,,,,,,
29794.54,-0.00036,15.78,,,,,,,
29794.58,-0.00033,18.8,,,,,,,
29794.6,-0.00031,21.79,,,,,,,
29794.62,-0.00028,24.42,,,,,,,
29794.65,-0.00025,27.75,,,,,,,
29794.68,-0.00023,30.54,,,,,,,
30976.7,-0.00021,28.84,,,,,,,
30976.72,-0.0002,30.28,,,,,,,
30976.73,-0.00019,31.69,,,,,,,
30976.75,-0.00016,34.35,,,,,,,
30976.79,-0.00014,36.77,,,,,,,
30976.81,-0.00011,38.95,,,,,,,
30976.85,-9e-05,41.31,,,,,,,
30976.89,-6e-05,43.56,,,,,,,
30976.93,-4e-05,45.91,,,,,,,
30976.97,-1e-05,48.41,,,,,,,
30977.01,1e-05,50.56,,,,,,,
30977.06,4e-05,53.22,,,,,,,
30977.09,6e-05,56.32,,,,,,,
30977.12,9e-05,59.54,,,,,,,
30977.15,0.00011,62.28,,,,,,,
30977.18,0.00014,65.0,,,,,,,
30977.2,0.00017,67.56,,,,,,,
30977.22,0.00019,70.23,,,,,,,
30977.25,0.00022,73.07,,,,,,,
30977.27,0.00024,75.74,,,,,,,
30977.29,0.00027,78.3,,,,,,,
30977.31,0.00029,80.69,,,,,,,
30977.33,0.00032,83.12,,,,,,,
30977.36,0.00035,85.41,,,,,,,
30977.38,0.00037,87.59,,,,,,,
30977.4,0.0004,89.84,,,,,,,
30977.43,0.00042,91.85,,,,,,,
30977.45,0.00045,93.98,,,,,,,
30977.48,0.00047,95.91,,,,,,,
30977.5,0.0005,97.92,,,,,,,
30977.53,0.00053,99.65,,,,,,,
30977.56,0.00055,101.51,,,,,,,
30977.59,0.00058,103.29,,,,,,,
30977.61,0.0006,104.98,,,,,,,
30977.65,0.00063,106.7,,,,,,,
30977.68,0.00065,108.5,,,,,,,
30977.7,0.00068,110.17,,,,,,,
30977.72,0.00069,111.02,,,,,,,
30977.73,0.0007,112.04,,,,,,,
30977.76,0.00073,113.84,,,,,,,
30977.79,0.00075,115.76,,,,,,,
30977.82,0.00078,117.55,,,,,,,
30977.85,0.0008,119.15,,,,,,,
30977.87,0.00083,121.07,,,,,,,
30977.9,0.00086,122.87,,,,,,,
30977.93,0.00088,124.57,,,,,,,
30977.95,0.00091,126.43,,,,,,,
30977.98,0.00093,128.28,,,,,,,
30978.0,0.00096,130.4,,,,,,,
30978.03,0.00098,132.42,,,,,,,
30978.04,0.00101,134.36,,,,,,,
30978.07,0.00103,136.37,,,,,,,
30978.08,0.00106,138.34,,,,,,,
30978.11,0.00108,140.37,,,,,,,
30978.12,0.00111,142.24,,,,,,,
30978.14,0.00114,144.27,,,,,,,
30978.15,0.00116,146.05,,,,,,,
30978.17,0.00119,147.89,,,,,,,
30978.19,0.00122,149.64,,,,,,,
30978.21,0.00124,151.35,,,,,,,
30978.22,0.00127,153.01,,,,,,,
30978.24,0.00129,154.42,,,,,,,
30978.25,0.00132,155.57,,,,,,,
30978.27,0.00134,156.26,,,,,,,
30978.29,0.00137,156.65,,,,,,,
30978.32,0.0014,156.54,,,,,,,
30978.35,0.00142,155.4,,,,,,,
30978.5,0.0014,134.21,,,,,,,
30978.53,0.00137,129.16,,,,,,,
30978.55,0.00135,124.57,,,,,,,
30978.58,0.00132,120.27,,,,,,,
30978.59,0.00129,116.02,,,,,,,
30978.61,0.00127,112.24,,,,,,,
30978.64,0.00124,108.32,,,,,,,
30978.65,0.00122,104.63,,,,,,,
30978.68,0.00119,101.08,,,,,,,
30978.7,0.00116,97.25,,,,,,,
30978.72,0.00114,93.88,,,,,,,
30978.72,0.00114,93.63,,,,,,,
30978.74,0.00111,90.25,,,,,,,
30978.76,0.00109,86.52,,,,,,,
30978.79,0.00106,83.06,,,,,,,
30978.81,0.00103,79.61,,,,,,,
30978.83,0.00101,76.13,,,,,,,
30978.86,0.00098,72.64,,,,,,,
30978.89,0.00096,69.31,,,,,,,
30978.91,0.00093,65.76,,,,,,,
30978.94,0.00091,62.37,,,,,,,
30978.97,0.00088,59.02,,,,,,,
30979.0,0.00086,55.72,,,,,,,
30979.02,0.00083,52.41,,,,,,,
30979.05,0.00081,49.11,,,,,,,
30979.08,0.00078,45.89,,,,,,,
30979.11,0.00075,42.68,,,,,,,
30979.13,0.00073,39.51,,,,,,,
30979.16,0.0007,36.28,,,,,,,
30979.18,0.00068,33.29,,,,,,,
30979.22,0.00065,29.99,,,,,,,
30979.25,0.00063,26.77,,,,,,,
30979.28,0.0006,23.75,,,,,,,
30979.3,0.00058,20.45,,,,,,,
30979.33,0.00055,17.31,,,,,,,
30979.36,0.00053,14.25,,,,,,,
30979.39,0.0005,11.26,,,,,,,
30979.41,0.00048,8.33,,,,,,,
30979.44,0.00045,5.4,,,,,,,
30979.47,0.00043,2.24,,,,,,,
30979.5,0.0004,-0.85,,,,,,,
30979.53,0.00037,-3.75,,,,,,,
30979.55,0.00035,-6.58,,,,,,,
30979.58,0.00032,-9.31,,,,,,,
30979.61,0.0003,-12.19,,,,,,,
30979.64,0.00027,-15.03,,,,,,,
30979.67,0.00025,-17.38,,,,,,,
30979.7,0.00022,-19.74,,,,,,,
30979.72,0.00021,-20.34,,,,,,,
30979.75,0.0002,-21.77,,,,,,,
30979.8,0.00017,-24.16,,,,,,,
30979.86,0.00015,-26.66,,,,,,,
30979.9,0.00012,-30.01,,,,,,,
30979.94,0.0001,-33.16,,,,,,,
30979.97,7e-05,-36.76,,,,,,,
30979.99,4e-05,-40.02,,,,,,,
30980.01,2e-05,-42.81,,,,,,,
30980.04,-1e-05,-45.94,,,,,,,
30980.06,-3e-05,-48.98,,,,,,,
30980.08,-6e-05,-51.8,,,,,,,
30980.1,-9e-05,-54.22,,,,,,,
30980.12,-0.00011,-56.76,,,,,,,
30980.15,-0.00014,-59.19,,,,,,,
30980.17,-0.00016,-61.49,,,,,,,
30980.19,-0.00019,-63.67,,,,,,,
30980.22,-0.00021,-65.77,,,,,,,
30980.25,-0.00024,-68.11,,,,,,,
30980.27,-0.00026,-70.37,,,,,,,
30980.3,-0.00029,-72.7,,,,,,,
30980.33,-0.00032,-74.68,,,,,,,
30980.36,-0.00034,-76.79,,,,,,,
30980.4,-0.00037,-78.83,,,,,,,
30980.42,-0.00039,-80.69,,,,,,,
30980.45,-0.00042,-82.9,,,,,,,
30980.48,-0.00044,-84.78,,,,,,,
30980.51,-0.00047,-86.66,,,,,,,
30980.54,-0.00049,-88.76,,,,,,,
30980.57,-0.00052,-90.84,,,,,,,
30980.6,-0.00054,-92.78,,,,,,,
30980.62,-0.00057,-94.72,,,,,,,
30980.65,-0.00059,-96.84,,,,,,,
30980.68,-0.00062,-98.91,,,,,,,
30980.7,-0.00065,-101.2,,,,,,,
30980.72,-0.00066,-103.0,,,,,,,
30980.72,-0.00067,-103.7,,,,,,,
30980.75,-0.0007,-106.0,,,,,,,
30980.76,-0.00072,-108.3,,,,,,,
30980.78,-0.00075,-110.6,,,,,,,
30980.8,-0.00077,-113.1,,,,,,,
30980.82,-0.0008,-115.2,,,,,,,
30980.83,-0.00082,-117.6,,,,,,,
30980.86,-0.00085,-120.0,,,,,,,
30980.87,-0.00088,-122.2,,,,,,,
30980.89,-0.0009,-124.3,,,,,,,
30980.9,-0.00093,-126.5,,,,,,,
30980.92,-0.00095,-128.6,,,,,,,
30980.93,-0.00098,-130.8,,,,,,,
30980.95,-0.00101,-132.8,,,,,,,
30980.97,-0.00103,-134.8,,,,,,,
30980.98,-0.00106,-136.4,,,,,,,
30981.0,-0.00108,-138.3,,,,,,,
30981.02,-0.00111,-140.1,,,,,,,
30981.04,-0.00113,-141.7,,,,,,,
30981.05,-0.00116,-143.4,,,,,,,
30981.07,-0.00119,-145.2,,,,,,,
30981.08,-0.00121,-146.8,,,,,,,
30981.11,-0.00124,-148.2,,,,,,,
30981.12,-0.00127,-149.7,,,,,,,
30981.15,-0.00129,-151.0,,,,,,,
30981.16,-0.00132,-152.3,,,,,,,
30981.18,-0.00134,-153.6,,,,,,,
30981.2,-0.00137,-154.8,,,,,,,
30981.22,-0.00139,-155.7,,,,,,,
30981.25,-0.00142,-156.1,,,,,,,
30981.28,-0.00144,-155.7,,,,,,,
30981.33,-0.00147,-153.1,,,,,,,
30981.43,-0.00144,-138.3,,,,,,,
30981.47,-0.00142,-132.0,,,,,,,
30981.5,-0.00139,-126.2,,,,,,,
30981.51,-0.00137,-122.0,,,,,,,
30981.54,-0.00134,-117.3,,,,,,,
30981.56,-0.00132,-113.0,,,,,,,
30981.58,-0.00129,-108.8,,,,,,,
30981.6,-0.00126,-104.3,,,,,,,
30981.62,-0.00124,-100.4,,,,,,,
30981.65,-0.00121,-96.72,,,,,,,
30981.66,-0.00119,-92.83,,,,,,,
30981.68,-0.00116,-88.88,,,,,,,
30981.71,-0.00114,-85.29,,,,,,,
30981.72,-0.00113,-83.72,,,,,,,
30981.73,-0.00111,-81.76,,,,,,,
30981.75,-0.00109,-78.19,,,,,,,
30981.78,-0.00106,-74.59,,,,,,,
30981.79,-0.00104,-71.12,,,,,,,
30981.83,-0.00101,-67.56,,,,,,,
30981.85,-0.00099,-64.14,,,,,,,
30981.87,-0.00096,-60.67,,,,,,,
30981.9,-0.00093,-57.35,,,,,,,
30981.92,-0.00091,-54.15,,,,,,,
30981.95,-0.00088,-51.01,,,,,,,
30981.97,-0.00086,-47.77,,,,,,,
30982.0,-0.00083,-44.78,,,,,,,
30982.03,-0.00081,-41.42,,,,,,,
30982.05,-0.00078,-38.51,,,,,,,
30982.08,-0.00076,-35.46,,,,,,,
30982.11,-0.00073,-32.46,,,,,,,
30982.13,-0.0007,-29.45,,,,,,,
30982.16,-0.00068,-26.38,,,,,,,
30982.18,-0.00065,-23.39,,,,,,,
30982.22,-0.00063,-20.37,,,,,,,
30982.24,-0.0006,-17.39,,,,,,,
30982.27,-0.00058,-14.41,,,,,,,
30982.29,-0.00055,-11.41,,,,,,,
30982.33,-0.00053,-8.36,,,,,,,
30982.36,-0.0005,-5.33,,,,,,,
30982.39,-0.00048,-2.13,,,,,,,
30982.41,-0.00045,0.89,,,,,,,
30982.44,-0.00042,3.79,,,,,,,
30982.47,-0.0004,6.77,,,,,,,
30982.5,-0.00037,9.69,,,,,,,
30982.53,-0.00035,12.58,,,,,,,
30982.55,-0.00032,15.47,,,,,,,
30982.58,-0.0003,18.35,,,,,,,
30982.61,-0.00027,21.1,,,,,,,
30982.64,-0.00025,23.97,,,,,,,
