time,strain,stress,temperature,type,strain_rate,max_strain,title,youngs,poissons
0.0,1e-05,9.22,950,fatigue,0.001,0.00203,43-5,144000,0.3
0.04,4e-05,13.17,,,,,,,
0.08,7e-05,17.02,,,,,,,
0.12,9e-05,20.52,,,,,,,
0.17,0.00012,23.98,,,,,,,
0.23,0.00014,27.39,,,,,,,
0.28,0.00017,31.16,,,,,,,
0.31,0.00019,34.95,,,,,,,
0.33,0.00022,39.12,,,,,,,
0.34,0.00024,42.38,,,,,,,
0.36,0.00027,45.64,,,,,,,
0.38,0.00029,49.02,,,,,,,
0.39,0.00032,52.29,,,,,,,
0.42,0.00035,55.65,,,,,,,
0.45,0.00037,59.27,,,,,,,
0.47,0.0004,62.55,,,,,,,
0.51,0.00042,66.25,,,,,,,
0.55,0.00045,69.85,,,,,,,
0.58,0.00047,73.05,,,,,,,
0.61,0.0005,75.91,,,,,,,
0.64,0.00052,79.08,,,,,,,
0.67,0.00055,82.31,,,,,,,
0.7,0.00058,85.57,,,,,,,
0.73,0.0006,89.03,,,,,,,
0.76,0.00063,92.61,,,,,,,
0.78,0.00065,96.29,,,,,,,
0.8,0.00068,100.06,,,,,,,
0.82,0.0007,103.58,,,,,,,
0.84,0.00073,107.05,,,,,,,
0.86,0.00075,110.37,,,,,,,
0.87,0.00078,113.75,,,,,,,
0.89,0.00081,116.98,,,,,,,
0.91,0.00083,119.92,,,,,,,
0.92,0.00086,123.06,,,,,,,
0.94,0.00088,125.96,,,,,,,
0.96,0.00091,128.58,,,,,,,
0.97,0.00093,131.1,,,,,,,
0.99,0.00096,133.71,,,,,,,
1.0,0.00099,136.04,,,,,,,
1.02,0.00101,138.4,,,,,,,
1.05,0.00104,141.24,,,,,,,
1.08,0.00106,144.64,,,,,,,
1.11,0.00109,148.07,,,,,,,
1.14,0.00111,150.87,,,,,,,
1.17,0.00114,153.86,,,,,,,
1.19,0.00116,156.56,,,,,,,
1.22,0.00119,158.95,,,,,,,
1.23,0.00121,160.11,,,,,,,
1.24,0.00124,160.25,,,,,,,
1.24,0.00127,159.96,,,,,,,
1.25,0.0013,159.98,,,,,,,
1.25,0.00133,160.01,,,,,,,
1.25,0.00136,160.08,,,,,,,
1.26,0.0014,160.15,,,,,,,
1.26,0.00143,160.23,,,,,,,
1.26,0.00146,160.37,,,,,,,
1.27,0.00148,160.52,,,,,,,
1.27,0.00151,160.59,,,,,,,
1.28,0.00154,160.5,,,,,,,
1.29,0.00156,160.22,,,,,,,
1.31,0.00159,158.44,,,,,,,
1.36,0.00156,152.02,,,,,,,
1.38,0.00154,148.2,,,,,,,
1.4,0.00151,144.47,,,,,,,
1.43,0.00148,140.78,,,,,,,
1.45,0.00146,137.18,,,,,,,
1.49,0.00143,132.92,,,,,,,
1.53,0.00141,128.12,,,,,,,
1.56,0.00138,124.27,,,,,,,
1.59,0.00136,120.84,,,,,,,
1.63,0.00133,116.71,,,,,,,
1.66,0.00131,112.74,,,,,,,
1.69,0.00128,108.51,,,,,,,
1.72,0.00126,104.75,,,,,,,
1.74,0.00123,101.5,,,,,,,
1.76,0.0012,98.19,,,,,,,
1.79,0.00118,94.54,,,,,,,
1.82,0.00115,90.77,,,,,,,
1.84,0.00113,87.43,,,,,,,
1.87,0.0011,84.12,,,,,,,
1.9,0.00108,80.8,,,,,,,
1.92,0.00105,77.52,,,,,,,
1.95,0.00103,74.06,,,,,,,
1.98,0.001,70.57,,,,,,,
2.01,0.00098,67.24,,,,,,,
2.03,0.00095,64.05,,,,,,,
2.06,0.00092,60.63,,,,,,,
2.08,0.0009,57.48,,,,,,,
2.11,0.00087,54.42,,,,,,,
2.14,0.00085,51.03,,,,,,,
2.17,0.00082,46.88,,,,,,,
2.21,0.0008,43.3,,,,,,,
2.23,0.00077,39.56,,,,,,,
2.26,0.00075,36.11,,,,,,,
2.29,0.00072,32.63,,,,,,,
2.32,0.0007,29.02,,,,,,,
2.34,0.00067,25.46,,,,,,,
2.37,0.00064,22.01,,,,,,,
2.4,0.00062,18.4,,,,,,,
2.43,0.00059,14.78,,,,,,,
2.46,0.00057,11.13,,,,,,,
2.49,0.00054,7.65,,,,,,,
2.51,0.00052,4.16,,,,,,,
2.54,0.00049,0.42,,,,,,,
2.57,0.00047,-3.11,,,,,,,
2.6,0.00044,-6.77,,,,,,,
2.63,0.00042,-10.24,,,,,,,
2.66,0.00039,-13.58,,,,,,,
2.69,0.00036,-17.07,,,,,,,
2.74,0.00034,-20.07,,,,,,,
2.87,0.00031,-24.94,,,,,,,
2.9,0.00029,-28.57,,,,,,,
2.94,0.00026,-31.97,,,,,,,
2.97,0.00024,-35.77,,,,,,,
2.99,0.00021,-39.44,,,,,,,
3.02,0.00019,-43.25,,,,,,,
3.04,0.00016,-47.53,,,,,,,
3.05,0.00013,-50.94,,,,,,,
3.07,0.00011,-54.39,,,,,,,
3.09,8e-05,-57.88,,,,,,,
3.11,6e-05,-61.36,,,,,,,
3.13,3e-05,-64.83,,,,,,,
3.15,1e-05,-68.25,,,,,,,
3.17,-2e-05,-71.67,,,,,,,
3.2,-4e-05,-75.44,,,,,,,
3.22,-7e-05,-79.11,,,,,,,
3.23,-9e-05,-82.78,,,,,,,
3.25,-0.00012,-86.24,,,,,,,
3.27,-0.00015,-89.82,,,,,,,
3.28,-0.00017,-93.32,,,,,,,
3.3,-0.0002,-96.43,,,,,,,
3.31,-0.00022,-99.52,,,,,,,
3.33,-0.00025,-102.66,,,,,,,
3.34,-0.00027,-105.8,,,,,,,
3.36,-0.0003,-108.67,,,,,,,
3.38,-0.00033,-111.73,,,,,,,
3.39,-0.00035,-114.66,,,,,,,
3.41,-0.00038,-117.59,,,,,,,
3.43,-0.0004,-120.24,,,,,,,
3.45,-0.00043,-122.83,,,,,,,
3.47,-0.00045,-125.27,,,,,,,
3.49,-0.00048,-127.84,,,,,,,
3.51,-0.0005,-129.91,,,,,,,
3.53,-0.00053,-132.01,,,,,,,
3.55,-0.00056,-133.57,,,,,,,
3.57,-0.00058,-134.93,,,,,,,
3.58,-0.00061,-136.04,,,,,,,
3.6,-0.00063,-136.95,,,,,,,
3.61,-0.00066,-137.52,,,,,,,
3.63,-0.00069,-138.29,,,,,,,
3.65,-0.00071,-138.92,,,,,,,
3.67,-0.00074,-139.38,,,,,,,
3.7,-0.00076,-139.86,,,,,,,
3.74,-0.00079,-140.17,,,,,,,
3.82,-0.00081,-141.53,,,,,,,
3.86,-0.00084,-143.96,,,,,,,
3.9,-0.00086,-146.62,,,,,,,
3.93,-0.00089,-149.48,,,,,,,
3.96,-0.00092,-151.61,,,,,,,
3.97,-0.00094,-153.22,,,,,,,
3.99,-0.00097,-154.28,,,,,,,
4.0,-0.00099,-154.04,,,,,,,
4.0,-0.00102,-154.19,,,,,,,
4.0,-0.00105,-154.36,,,,,,,
4.01,-0.00109,-154.55,,,,,,,
4.01,-0.00112,-154.83,,,,,,,
4.02,-0.00114,-155.55,,,,,,,
4.03,-0.00117,-155.78,,,,,,,
4.04,-0.00119,-155.94,,,,,,,
4.08,-0.00122,-155.24,,,,,,,
4.27,-0.00124,-151.49,,,,,,,
4.31,-0.00127,-153.82,,,,,,,
4.34,-0.0013,-156.46,,,,,,,
4.37,-0.00132,-159.03,,,,,,,
4.39,-0.00135,-161.47,,,,,,,
4.42,-0.00137,-163.61,,,,,,,
4.44,-0.0014,-165.01,,,,,,,
4.48,-0.00142,-165.3,,,,,,,
4.59,-0.0014,-154.02,,,,,,,
4.61,-0.00137,-149.69,,,,,,,
4.63,-0.00135,-145.62,,,,,,,
4.65,-0.00132,-141.69,,,,,,,
4.67,-0.00129,-137.73,,,,,,,
4.69,-0.00127,-133.9,,,,,,,
4.71,-0.00124,-130.43,,,,,,,
4.73,-0.00122,-126.93,,,,,,,
4.75,-0.00119,-123.58,,,,,,,
4.77,-0.00117,-120.14,,,,,,,
4.79,-0.00114,-116.71,,,,,,,
4.82,-0.00111,-113.35,,,,,,,
4.84,-0.00109,-110.15,,,,,,,
4.87,-0.00106,-106.86,,,,,,,
4.89,-0.00104,-103.63,,,,,,,
4.92,-0.00101,-100.39,,,,,,,
4.95,-0.00099,-97.29,,,,,,,
4.97,-0.00096,-94.12,,,,,,,
5.0,-0.00094,-90.78,,,,,,,
5.03,-0.00091,-87.65,,,,,,,
5.06,-0.00088,-84.31,,,,,,,
5.09,-0.00086,-81.16,,,,,,,
5.12,-0.00083,-78.1,,,,,,,
5.15,-0.00081,-74.66,,,,,,,
5.18,-0.00078,-70.73,,,,,,,
5.21,-0.00076,-67.09,,,,,,,
5.24,-0.00073,-63.99,,,,,,,
5.26,-0.00071,-61.03,,,,,,,
5.29,-0.00068,-57.62,,,,,,,
5.32,-0.00066,-54.25,,,,,,,
5.35,-0.00063,-50.76,,,,,,,
5.38,-0.00061,-47.21,,,,,,,
5.41,-0.00058,-43.85,,,,,,,
5.43,-0.00055,-40.33,,,,,,,
5.46,-0.00053,-36.86,,,,,,,
5.49,-0.0005,-33.32,,,,,,,
5.52,-0.00048,-30.05,,,,,,,
5.54,-0.00045,-26.59,,,,,,,
5.57,-0.00043,-22.96,,,,,,,
5.6,-0.0004,-19.65,,,,,,,
5.63,-0.00038,-16.23,,,,,,,
5.65,-0.00035,-12.83,,,,,,,
5.68,-0.00032,-9.75,,,,,,,
5.71,-0.0003,-6.47,,,,,,,
5.73,-0.00027,-3.1,,,,,,,
5.76,-0.00025,0.09,,,,,,,
5.79,-0.00022,3.59,,,,,,,
5.82,-0.0002,6.97,,,,,,,
5.85,-0.00017,10.45,,,,,,,
5.88,-0.00015,13.92,,,,,,,
5.91,-0.00012,17.54,,,,,,,
5.94,-0.0001,21.09,,,,,,,
5.97,-7e-05,24.54,,,,,,,
6.0,-5e-05,27.66,,,,,,,
6.06,-2e-05,30.54,,,,,,,
6.12,0.0,33.97,,,,,,,
6.16,3e-05,37.39,,,,,,,
6.19,6e-05,41.05,,,,,,,
6.2,8e-05,44.64,,,,,,,
6.22,0.00011,47.89,,,,,,,
6.24,0.00013,50.94,,,,,,,
6.26,0.00016,54.03,,,,,,,
6.28,0.00018,56.89,,,,,,,
6.3,0.00021,59.77,,,,,,,
6.32,0.00023,62.48,,,,,,,
6.35,0.00026,65.21,,,,,,,
6.38,0.00028,67.94,,,,,,,
6.42,0.00031,70.63,,,,,,,
6.45,0.00033,73.16,,,,,,,
6.49,0.00036,75.85,,,,,,,
6.52,0.00039,78.5,,,,,,,
6.55,0.00041,80.93,,,,,,,
6.58,0.00044,83.6,,,,,,,
6.61,0.00046,86.3,,,,,,,
6.64,0.00049,89.05,,,,,,,
6.67,0.00051,91.94,,,,,,,
6.69,0.00054,94.95,,,,,,,
6.71,0.00056,98.03,,,,,,,
6.72,0.00059,101.05,,,,,,,
6.74,0.00061,104.23,,,,,,,
6.76,0.00064,107.08,,,,,,,
6.77,0.00066,110.22,,,,,,,
6.79,0.00069,113.26,,,,,,,
6.81,0.00072,116.34,,,,,,,
6.82,0.00074,119.07,,,,,,,
6.84,0.00077,122.12,,,,,,,
6.86,0.00079,124.94,,,,,,,
6.88,0.00082,127.77,,,,,,,
6.89,0.00084,130.46,,,,,,,
6.91,0.00087,133.14,,,,,,,
6.93,0.0009,135.56,,,,,,,
6.95,0.00092,138.05,,,,,,,
6.98,0.00095,140.54,,,,,,,
7.0,0.00097,142.81,,,,,,,
7.02,0.001,144.63,,,,,,,
7.04,0.00102,146.31,,,,,,,
7.06,0.00105,147.86,,,,,,,
7.07,0.00108,148.9,,,,,,,
7.09,0.0011,149.91,,,,,,,
7.1,0.00113,150.48,,,,,,,
7.11,0.00115,151.11,,,,,,,
7.12,0.00118,151.45,,,,,,,
7.14,0.00121,151.85,,,,,,,
7.14,0.00123,152.0,,,,,,,
7.18,0.00126,152.16,,,,,,,
7.21,0.00128,151.45,,,,,,,
7.29,0.00131,150.39,,,,,,,
7.35,0.00133,151.5,,,,,,,
7.39,0.00136,153.67,,,,,,,
7.42,0.00138,155.87,,,,,,,
7.45,0.00141,158.19,,,,,,,
7.47,0.00143,160.52,,,,,,,
7.5,0.00146,162.66,,,,,,,
7.52,0.00149,164.5,,,,,,,
7.54,0.00151,165.39,,,,,,,
7.56,0.00154,165.16,,,,,,,
7.57,0.00157,164.83,,,,,,,
7.57,0.0016,164.61,,,,,,,
7.58,0.00162,164.43,,,,,,,
7.59,0.00165,163.73,,,,,,,
7.66,0.00162,153.08,,,,,,,
7.67,0.0016,148.66,,,,,,,
7.69,0.00157,144.3,,,,,,,
7.7,0.00155,140.15,,,,,,,
7.72,0.00152,136.04,,,,,,,
7.73,0.0015,132.31,,,,,,,
7.75,0.00147,128.31,,,,,,,
7.76,0.00144,124.55,,,,,,,
7.78,0.00142,120.74,,,,,,,
7.79,0.00139,117.08,,,,,,,
7.81,0.00136,113.5,,,,,,,
7.83,0.00134,109.97,,,,,,,
7.85,0.00131,106.29,,,,,,,
7.87,0.00129,102.83,,,,,,,
7.89,0.00126,99.42,,,,,,,
7.91,0.00124,95.86,,,,,,,
7.94,0.00121,92.35,,,,,,,
7.97,0.00119,88.97,,,,,,,
8.0,0.00116,85.55,,,,,,,
8.03,0.00113,82.07,,,,,,,
8.06,0.00111,78.61,,,,,,,
8.09,0.00108,74.9,,,,,,,
8.12,0.00106,71.01,,,,,,,
8.16,0.00103,67.23,,,,,,,
8.18,0.00101,63.65,,,,,,,
8.21,0.00098,60.21,,,,,,,
8.24,0.00096,57.14,,,,,,,
8.26,0.00093,53.88,,,,,,,
8.29,0.00091,50.43,,,,,,,
8.31,0.00088,47.03,,,,,,,
8.34,0.00085,43.68,,,,,,,
8.37,0.00083,40.07,,,,,,,
8.4,0.0008,36.56,,,,,,,
8.43,0.00078,33.27,,,,,,,
8.46,0.00075,29.65,,,,,,,
8.49,0.00073,26.13,,,,,,,
8.52,0.0007,22.59,,,,,,,
8.54,0.00068,19.04,,,,,,,
8.57,0.00065,15.66,,,,,,,
8.6,0.00063,12.61,,,,,,,
8.62,0.0006,9.4,,,,,,,
8.65,0.00057,6.22,,,,,,,
8.68,0.00055,3.02,,,,,,,
8.7,0.00052,-0.22,,,,,,,
8.73,0.0005,-3.73,,,,,,,
8.76,0.00047,-6.96,,,,,,,
8.79,0.00045,-10.18,,,,,,,
8.82,0.00042,-13.39,,,,,,,
8.85,0.0004,-16.66,,,,,,,
8.9,0.00037,-19.2,,,,,,,
9.02,0.00034,-21.53,,,,,,,
9.06,0.00032,-25.06,,,,,,,
9.1,0.00029,-28.52,,,,,,,
9.14,0.00027,-32.36,,,,,,,
9.18,0.00024,-35.87,,,,,,,
9.2,0.00022,-39.38,,,,,,,
9.23,0.00019,-43.14,,,,,,,
9.25,0.00017,-46.94,,,,,,,
9.26,0.00014,-50.9,,,,,,,
9.28,0.00011,-54.27,,,,,,,
9.29,9e-05,-57.69,,,,,,,
9.31,6e-05,-60.74,,,,,,,
9.33,4e-05,-64.16,,,,,,,
9.35,1e-05,-67.71,,,,,,,
9.36,-1e-05,-71.11,,,,,,,
9.38,-4e-05,-74.36,,,,,,,
9.39,-7e-05,-77.68,,,,,,,
9.41,-9e-05,-80.94,,,,,,,
9.42,-0.00012,-84.02,,,,,,,
9.44,-0.00014,-87.19,,,,,,,
9.46,-0.00017,-90.26,,,,,,,
9.47,-0.0002,-93.11,,,,,,,
9.49,-0.00022,-96.13,,,,,,,
9.5,-0.00025,-98.97,,,,,,,
9.52,-0.00027,-101.67,,,,,,,
9.54,-0.0003,-104.58,,,,,,,
9.56,-0.00032,-107.48,,,,,,,
9.58,-0.00035,-110.23,,,,,,,
9.6,-0.00038,-113.03,,,,,,,
9.63,-0.0004,-115.88,,,,,,,
9.65,-0.00043,-118.55,,,,,,,
9.67,-0.00045,-121.12,,,,,,,
9.7,-0.00048,-123.43,,,,,,,
9.72,-0.0005,-125.79,,,,,,,
9.75,-0.00053,-128.12,,,,,,,
9.77,-0.00055,-130.37,,,,,,,
9.8,-0.00058,-132.74,,,,,,,
9.82,-0.0006,-134.68,,,,,,,
9.82,-0.0006,-134.89,,,,,,,
9.85,-0.00063,-137.2,,,,,,,
9.88,-0.00066,-139.63,,,,,,,
9.9,-0.00068,-141.97,,,,,,,
9.93,-0.00071,-144.24,,,,,,,
9.96,-0.00073,-146.44,,,,,,,
9.98,-0.00076,-148.32,,,,,,,
10.0,-0.00078,-150.08,,,,,,,
10.02,-0.00081,-150.4,,,,,,,
10.03,-0.00084,-150.75,,,,,,,
10.03,-0.00087,-151.05,,,,,,,
10.05,-0.0009,-152.1,,,,,,,
10.06,-0.00092,-152.91,,,,,,,
10.09,-0.00095,-153.64,,,,,,,
10.13,-0.00097,-153.94,,,,,,,
10.18,-0.001,-154.17,,,,,,,
10.23,-0.00102,-154.9,,,,,,,
10.29,-0.00105,-157.28,,,,,,,
10.33,-0.00107,-159.58,,,,,,,
10.35,-0.0011,-161.52,,,,,,,
10.37,-0.00112,-163.24,,,,,,,
10.39,-0.00115,-164.89,,,,,,,
10.41,-0.00118,-162.74,,,,,,,
10.41,-0.00121,-162.73,,,,,,,
10.41,-0.00125,-162.91,,,,,,,
10.42,-0.00128,-162.98,,,,,,,
10.42,-0.00132,-163.06,,,,,,,
10.42,-0.00136,-163.15,,,,,,,
10.42,-0.00139,-163.2,,,,,,,
10.42,-0.00143,-163.27,,,,,,,
10.42,-0.00146,-163.35,,,,,,,
10.42,-0.00149,-163.44,,,,,,,
10.42,-0.00153,-163.57,,,,,,,
10.53,-0.0015,-150.5,,,,,,,
10.55,-0.00148,-145.9,,,,,,,
10.58,-0.00145,-141.6,,,,,,,
10.61,-0.00143,-137.65,,,,,,,
10.71,-0.00145,-138.48,,,,,,,
10.75,-0.00148,-140.76,,,,,,,
10.78,-0.0015,-142.36,,,,,,,
10.92,-0.00148,-130.92,,,,,,,
10.95,-0.00145,-126.74,,,,,,,
10.97,-0.00143,-122.78,,,,,,,
10.99,-0.0014,-118.78,,,,,,,
11.01,-0.00137,-114.74,,,,,,,
11.04,-0.00135,-110.72,,,,,,,
11.06,-0.00132,-106.8,,,,,,,
11.08,-0.0013,-102.9,,,,,,,
11.11,-0.00127,-98.85,,,,,,,
11.13,-0.00125,-94.77,,,,,,,
11.16,-0.00122,-90.81,,,,,,,
11.19,-0.0012,-86.61,,,,,,,
11.22,-0.00117,-82.83,,,,,,,
11.24,-0.00114,-79.01,,,,,,,
11.27,-0.00112,-75.46,,,,,,,
11.3,-0.00109,-71.72,,,,,,,
11.32,-0.00107,-68.1,,,,,,,
11.35,-0.00104,-64.69,,,,,,,
11.38,-0.00102,-61.19,,,,,,,
11.4,-0.00099,-57.96,,,,,,,
11.43,-0.00097,-54.54,,,,,,,
11.45,-0.00094,-51.08,,,,,,,
11.48,-0.00092,-47.45,,,,,,,
11.51,-0.00089,-43.91,,,,,,,
11.54,-0.00087,-40.7,,,,,,,
11.56,-0.00084,-37.61,,,,,,,
11.59,-0.00081,-34.3,,,,,,,
11.61,-0.00079,-31.08,,,,,,,
11.64,-0.00076,-27.83,,,,,,,
11.67,-0.00074,-24.36,,,,,,,
11.7,-0.00071,-20.91,,,,,,,
11.73,-0.00069,-17.41,,,,,,,
11.76,-0.00066,-13.89,,,,,,,
11.78,-0.00064,-10.73,,,,,,,
11.81,-0.00061,-7.32,,,,,,,
11.84,-0.00059,-4.13,,,,,,,
11.87,-0.00056,-0.64,,,,,,,
11.89,-0.00053,2.71,,,,,,,
11.92,-0.00051,6.03,,,,,,,
11.95,-0.00048,9.36,,,,,,,
11.98,-0.00046,12.88,,,,,,,
12.01,-0.00043,16.46,,,,,,,
12.04,-0.00041,20.07,,,,,,,
12.07,-0.00038,23.51,,,,,,,
12.09,-0.00036,26.81,,,,,,,
12.13,-0.00033,29.44,,,,,,,
12.2,-0.00031,32.73,,,,,,,
12.25,-0.00028,36.3,,,,,,,
12.28,-0.00026,39.52,,,,,,,
26.33,-0.0002,60.98,,,,,,,
26.36,-0.00017,63.29,,,,,,,
26.39,-0.00014,65.99,,,,,,,
26.43,-0.00012,68.77,,,,,,,
26.47,-9e-05,71.19,,,,,,,
26.5,-7e-05,73.71,,,,,,,
26.54,-4e-05,76.27,,,,,,,
26.57,-2e-05,78.74,,,,,,,
26.59,1e-05,80.96,,,,,,,
26.62,3e-05,83.27,,,,,,,
26.64,6e-05,85.56,,,,,,,
26.67,8e-05,87.75,,,,,,,
26.69,0.00011,90.26,,,,,,,
26.71,0.00013,93.15,,,,,,,
26.73,0.00016,96.02,,,,,,,
26.75,0.00019,98.85,,,,,,,
26.77,0.00021,101.76,,,,,,,
26.79,0.00024,104.51,,,,,,,
26.8,0.00026,107.31,,,,,,,
26.82,0.00029,109.9,,,,,,,
26.83,0.00031,112.58,,,,,,,
26.85,0.00034,115.11,,,,,,,
26.87,0.00037,117.61,,,,,,,
26.89,0.00039,120.02,,,,,,,
26.9,0.00042,122.31,,,,,,,
26.92,0.00044,124.61,,,,,,,
26.94,0.00047,126.75,,,,,,,
26.96,0.0005,128.64,,,,,,,
26.98,0.00052,130.56,,,,,,,
27.0,0.00055,132.56,,,,,,,
27.02,0.00057,134.21,,,,,,,
27.04,0.0006,135.9,,,,,,,
27.07,0.00062,137.4,,,,,,,
27.09,0.00065,138.79,,,,,,,
27.11,0.00068,140.08,,,,,,,
27.14,0.0007,141.51,,,,,,,
27.16,0.00073,142.91,,,,,,,
27.18,0.00075,144.07,,,,,,,
27.21,0.00078,145.09,,,,,,,
27.23,0.0008,146.29,,,,,,,
27.26,0.00083,147.39,,,,,,,
27.29,0.00085,148.41,,,,,,,
27.31,0.00088,149.41,,,,,,,
27.34,0.00091,150.48,,,,,,,
27.36,0.00093,151.49,,,,,,,
27.39,0.00096,152.55,,,,,,,
27.41,0.00098,153.5,,,,,,,
27.44,0.00101,154.54,,,,,,,
27.46,0.00103,155.48,,,,,,,
27.49,0.00106,156.47,,,,,,,
27.52,0.00108,157.61,,,,,,,
27.54,0.00111,158.66,,,,,,,
27.57,0.00113,159.65,,,,,,,
27.59,0.00116,160.54,,,,,,,
27.61,0.00118,161.45,,,,,,,
27.64,0.00121,162.33,,,,,,,
27.66,0.00124,163.19,,,,,,,
27.69,0.00126,164.01,,,,,,,
27.71,0.00129,164.87,,,,,,,
27.73,0.00131,165.64,,,,,,,
27.76,0.00134,166.23,,,,,,,
27.78,0.00136,166.79,,,,,,,
27.8,0.00139,167.37,,,,,,,
27.83,0.00141,167.87,,,,,,,
27.86,0.00144,168.36,,,,,,,
27.88,0.00147,168.91,,,,,,,
27.91,0.00149,169.38,,,,,,,
27.94,0.00152,169.84,,,,,,,
27.96,0.00154,170.3,,,,,,,
27.98,0.00157,170.7,,,,,,,
28.01,0.00159,171.01,,,,,,,
28.03,0.00162,171.41,,,,,,,
28.05,0.00164,171.71,,,,,,,
28.07,0.00167,171.93,,,,,,,
28.1,0.00169,172.14,,,,,,,
28.12,0.00172,172.21,,,,,,,
28.15,0.00175,172.26,,,,,,,
28.18,0.00177,172.25,,,,,,,
28.2,0.0018,172.34,,,,,,,
28.23,0.00182,172.31,,,,,,,
28.25,0.00185,172.32,,,,,,,
28.28,0.00187,171.86,,,,,,,
28.32,0.0019,169.3,,,,,,,
28.41,0.00187,154.45,,,,,,,
28.43,0.00185,148.39,,,,,,,
28.45,0.00182,143.27,,,,,,,
28.47,0.0018,138.34,,,,,,,
28.49,0.00177,133.55,,,,,,,
28.51,0.00174,128.55,,,,,,,
28.53,0.00172,123.9,,,,,,,
28.55,0.00169,119.52,,,,,,,
28.57,0.00167,115.2,,,,,,,
28.59,0.00164,111.08,,,,,,,
28.62,0.00162,107.07,,,,,,,
28.64,0.00159,103.29,,,,,,,
28.66,0.00156,99.43,,,,,,,
28.68,0.00154,95.77,,,,,,,
28.7,0.00151,92.18,,,,,,,
28.73,0.00149,88.53,,,,,,,
28.76,0.00146,84.85,,,,,,,
28.78,0.00144,81.7,,,,,,,
28.8,0.00141,78.69,,,,,,,
28.83,0.00139,75.9,,,,,,,
28.85,0.00136,72.53,,,,,,,
28.89,0.00133,68.66,,,,,,,
28.92,0.00131,65.07,,,,,,,
28.95,0.00128,61.68,,,,,,,
28.98,0.00126,58.17,,,,,,,
29.0,0.00123,54.64,,,,,,,
29.03,0.00121,51.25,,,,,,,
29.06,0.00118,47.96,,,,,,,
29.09,0.00116,44.61,,,,,,,
29.11,0.00113,41.28,,,,,,,
29.14,0.00111,37.87,,,,,,,
29.17,0.00108,34.94,,,,,,,
29.19,0.00106,31.65,,,,,,,
29.22,0.00103,28.57,,,,,,,
29.25,0.001,25.66,,,,,,,
29.27,0.00098,22.81,,,,,,,
29.3,0.00095,19.96,,,,,,,
29.33,0.00093,16.56,,,,,,,
29.37,0.0009,12.31,,,,,,,
29.4,0.00088,8.59,,,,,,,
29.43,0.00085,5.12,,,,,,,
29.46,0.00083,1.58,,,,,,,
29.48,0.0008,-1.64,,,,,,,
29.51,0.00078,-5.0,,,,,,,
29.54,0.00075,-8.27,,,,,,,
29.56,0.00072,-11.23,,,,,,,
29.58,0.0007,-14.08,,,,,,,
29.61,0.00067,-16.97,,,,,,,
29.64,0.00065,-19.34,,,,,,,
29.77,0.00062,-20.08,,,,,,,
29.82,0.0006,-23.11,,,,,,,
29.82,0.0006,-23.28,,,,,,,
29.86,0.00057,-26.47,,,,,,,
29.89,0.00055,-29.23,,,,,,,
29.92,0.00052,-31.94,,,,,,,
29.96,0.0005,-34.93,,,,,,,
29.98,0.00047,-38.03,,,,,,,
30.01,0.00045,-41.22,,,,,,,
30.03,0.00042,-44.44,,,,,,,
30.05,0.0004,-48.18,,,,,,,
30.06,0.00037,-51.63,,,,,,,
30.08,0.00034,-54.87,,,,,,,
30.09,0.00032,-58.19,,,,,,,
30.11,0.00029,-61.58,,,,,,,
30.12,0.00026,-64.83,,,,,,,
30.14,0.00024,-68.08,,,,,,,
30.15,0.00021,-71.09,,,,,,,
30.17,0.00019,-74.16,,,,,,,
30.18,0.00016,-77.2,,,,,,,
30.2,0.00014,-79.9,,,,,,,
30.21,0.00011,-82.89,,,,,,,
30.23,8e-05,-85.53,,,,,,,
30.24,6e-05,-88.07,,,,,,,
30.25,3e-05,-90.24,,,,,,,
30.27,1e-05,-92.34,,,,,,,
30.28,-2e-05,-94.48,,,,,,,
30.3,-4e-05,-96.64,,,,,,,
30.32,-7e-05,-98.68,,,,,,,
30.33,-9e-05,-100.58,,,,,,,
30.35,-0.00012,-102.23,,,,,,,
30.38,-0.00015,-103.98,,,,,,,
30.4,-0.00017,-105.64,,,,,,,
30.42,-0.0002,-107.17,,,,,,,
30.45,-0.00022,-108.63,,,,,,,
30.48,-0.00025,-110.31,,,,,,,
30.5,-0.00027,-111.64,,,,,,,
30.53,-0.0003,-112.99,,,,,,,
30.55,-0.00032,-114.33,,,,,,,
30.58,-0.00035,-115.79,,,,,,,
30.61,-0.00037,-117.4,,,,,,,
30.64,-0.0004,-119.05,,,,,,,
30.66,-0.00043,-120.49,,,,,,,
30.69,-0.00045,-122.04,,,,,,,
30.72,-0.00048,-123.56,,,,,,,
30.75,-0.0005,-125.2,,,,,,,
30.77,-0.00053,-126.86,,,,,,,
30.8,-0.00055,-128.55,,,,,,,
30.83,-0.00058,-130.25,,,,,,,
30.85,-0.0006,-131.85,,,,,,,
30.88,-0.00063,-133.52,,,,,,,
30.9,-0.00066,-135.11,,,,,,,
30.93,-0.00068,-136.55,,,,,,,
30.95,-0.00071,-138.25,,,,,,,
30.98,-0.00073,-139.81,,,,,,,
31.0,-0.00076,-141.25,,,,,,,
31.03,-0.00078,-142.7,,,,,,,
31.05,-0.00081,-143.87,,,,,,,
31.07,-0.00084,-145.05,,,,,,,
31.1,-0.00086,-146.5,,,,,,,
31.13,-0.00089,-147.9,,,,,,,
31.16,-0.00091,-149.27,,,,,,,
31.18,-0.00094,-150.62,,,,,,,
31.21,-0.00096,-152.03,,,,,,,
31.24,-0.00099,-153.5,,,,,,,
31.27,-0.00101,-154.98,,,,,,,
31.29,-0.00104,-156.46,,,,,,,
31.32,-0.00106,-157.94,,,,,,,
31.34,-0.00109,-159.3,,,,,,,
31.37,-0.00111,-160.87,,,,,,,
31.39,-0.00114,-162.27,,,,,,,
31.42,-0.00117,-163.54,,,,,,,
31.44,-0.00119,-164.86,,,,,,,
31.46,-0.00122,-166.13,,,,,,,
31.49,-0.00124,-167.32,,,,,,,
31.51,-0.00127,-168.49,,,,,,,
31.54,-0.00129,-169.58,,,,,,,
31.56,-0.00132,-170.58,,,,,,,
31.58,-0.00134,-171.55,,,,,,,
31.61,-0.00137,-172.41,,,,,,,
31.63,-0.0014,-173.25,,,,,,,
31.66,-0.00142,-171.39,,,,,,,
31.66,-0.00145,-169.88,,,,,,,
31.66,-0.00147,-169.99,,,,,,,
31.67,-0.00151,-170.03,,,,,,,
31.67,-0.00155,-170.07,,,,,,,
31.67,-0.00158,-170.07,,,,,,,
31.67,-0.00161,-170.17,,,,,,,
31.71,-0.00164,-169.36,,,,,,,
31.88,-0.00166,-154.2,,,,,,,
31.94,-0.00169,-153.26,,,,,,,
31.97,-0.00172,-153.71,,,,,,,
32.0,-0.00174,-154.71,,,,,,,
32.03,-0.00177,-155.91,,,,,,,
32.05,-0.00179,-157.22,,,,,,,
32.07,-0.00182,-158.29,,,,,,,
32.1,-0.00184,-158.78,,,,,,,
32.15,-0.00187,-157.06,,,,,,,
32.24,-0.00184,-144.4,,,,,,,
32.26,-0.00182,-138.85,,,,,,,
32.28,-0.00179,-133.79,,,,,,,
32.3,-0.00176,-129.08,,,,,,,
32.32,-0.00174,-124.57,,,,,,,
32.34,-0.00171,-120.44,,,,,,,
32.36,-0.00169,-116.16,,,,,,,
32.38,-0.00166,-112.02,,,,,,,
32.4,-0.00164,-108.12,,,,,,,
32.42,-0.00161,-104.49,,,,,,,
32.44,-0.00158,-100.68,,,,,,,
32.46,-0.00156,-97.12,,,,,,,
32.49,-0.00153,-93.4,,,,,,,
32.51,-0.00151,-89.38,,,,,,,
32.54,-0.00148,-86.08,,,,,,,
32.56,-0.00146,-82.89,,,,,,,
32.59,-0.00143,-78.99,,,,,,,
32.62,-0.0014,-74.98,,,,,,,
32.65,-0.00138,-71.6,,,,,,,
32.67,-0.00135,-68.14,,,,,,,
32.7,-0.00133,-64.26,,,,,,,
32.73,-0.0013,-61.06,,,,,,,
32.76,-0.00128,-57.58,,,,,,,
32.78,-0.00125,-54.0,,,,,,,
32.81,-0.00123,-50.84,,,,,,,
32.84,-0.0012,-47.49,,,,,,,
32.86,-0.00118,-44.07,,,,,,,
32.89,-0.00115,-40.98,,,,,,,
32.92,-0.00112,-37.81,,,,,,,
32.94,-0.0011,-34.35,,,,,,,
32.97,-0.00107,-31.25,,,,,,,
33.0,-0.00105,-27.59,,,,,,,
33.04,-0.00102,-23.68,,,,,,,
33.07,-0.001,-19.8,,,,,,,
33.09,-0.00097,-16.62,,,,,,,
33.12,-0.00095,-13.61,,,,,,,
33.14,-0.00092,-10.76,,,,,,,
33.16,-0.0009,-7.89,,,,,,,
33.19,-0.00087,-4.95,,,,,,,
33.21,-0.00085,-1.75,,,,,,,
33.24,-0.00082,0.89,,,,,,,
33.26,-0.00079,3.66,,,,,,,
33.29,-0.00077,6.27,,,,,,,
33.31,-0.00074,8.81,,,,,,,
33.33,-0.00072,11.43,,,,,,,
33.36,-0.00069,13.9,,,,,,,
33.39,-0.00067,16.54,,,,,,,
33.42,-0.00064,19.29,,,,,,,
33.45,-0.00062,22.09,,,,,,,
33.48,-0.00059,24.54,,,,,,,
33.51,-0.00057,26.51,,,,,,,
33.56,-0.00054,28.31,,,,,,,
33.61,-0.00052,30.62,,,,,,,
33.65,-0.00049,33.07,,,,,,,
33.69,-0.00047,36.07,,,,,,,
33.71,-0.00044,39.9,,,,,,,
33.73,-0.00041,43.21,,,,,,,
33.76,-0.00039,46.61,,,,,,,
33.78,-0.00036,49.98,,,,,,,
33.81,-0.00034,53.21,,,,,,,
33.83,-0.00031,56.11,,,,,,,
33.86,-0.00029,59.1,,,,,,,
33.89,-0.00026,61.94,,,,,,,
33.92,-0.00023,64.36,,,,,,,
65.99,-0.00021,71.7,,,,,,,
66.02,-0.00018,73.65,,,,,,,
66.05,-0.00016,75.79,,,,,,,
66.08,-0.00013,77.67,,,,,,,
66.11,-0.00011,79.71,,,,,,,
66.13,-8e-05,81.67,,,,,,,
66.15,-6e-05,83.9,,,,,,,
66.17,-3e-05,86.18,,,,,,,
66.19,-0.0,88.61,,,,,,,
66.21,2e-05,91.08,,,,,,,
66.23,5e-05,93.74,,,,,,,
66.25,7e-05,96.28,,,,,,,
66.26,0.0001,98.71,,,,,,,
66.28,0.00013,101.0,,,,,,,
66.3,0.00015,103.43,,,,,,,
66.32,0.00018,105.62,,,,,,,
66.34,0.0002,107.96,,,,,,,
66.36,0.00023,110.34,,,,,,,
66.37,0.00025,112.38,,,,,,,
66.39,0.00028,114.37,,,,,,,
66.41,0.00031,116.17,,,,,,,
66.43,0.00033,117.68,,,,,,,
66.45,0.00036,119.3,,,,,,,
66.47,0.00038,120.83,,,,,,,
66.49,0.00041,122.12,,,,,,,
66.51,0.00043,123.36,,,,,,,
66.53,0.00046,124.5,,,,,,,
66.55,0.00048,125.53,,,,,,,
66.58,0.00051,126.54,,,,,,,
66.6,0.00053,127.43,,,,,,,
66.63,0.00056,128.28,,,,,,,
66.65,0.00059,129.14,,,,,,,
66.68,0.00061,130.0,,,,,,,
66.72,0.00064,131.37,,,,,,,
66.75,0.00066,132.55,,,,,,,
66.78,0.00069,133.98,,,,,,,
66.81,0.00071,135.39,,,,,,,
66.83,0.00074,136.87,,,,,,,
66.86,0.00076,138.37,,,,,,,
66.88,0.00079,139.83,,,,,,,
66.91,0.00081,141.17,,,,,,,
66.93,0.00084,142.58,,,,,,,
66.95,0.00087,143.81,,,,,,,
66.97,0.00089,144.9,,,,,,,
66.99,0.00092,145.86,,,,,,,
67.01,0.00094,146.74,,,,,,,
67.03,0.00097,147.47,,,,,,,
67.05,0.00099,148.17,,,,,,,
67.07,0.00102,148.74,,,,,,,
67.09,0.00105,149.17,,,,,,,
67.11,0.00107,149.46,,,,,,,
67.14,0.0011,149.68,,,,,,,
67.17,0.00112,149.71,,,,,,,
67.19,0.00115,149.8,,,,,,,
67.22,0.00117,149.83,,,,,,,
67.25,0.0012,149.99,,,,,,,
67.28,0.00122,150.18,,,,,,,
67.31,0.00125,150.45,,,,,,,
67.33,0.00127,150.78,,,,,,,
67.36,0.0013,151.19,,,,,,,
67.38,0.00133,151.63,,,,,,,
67.41,0.00135,152.04,,,,,,,
67.44,0.00138,152.51,,,,,,,
67.47,0.0014,153.1,,,,,,,
67.5,0.00143,153.91,,,,,,,
67.53,0.00145,154.7,,,,,,,
67.56,0.00148,155.5,,,,,,,
67.58,0.0015,156.32,,,,,,,
67.6,0.00153,157.13,,,,,,,
67.63,0.00155,157.96,,,,,,,
67.66,0.00158,159.03,,,,,,,
67.69,0.0016,159.93,,,,,,,
67.71,0.00163,160.78,,,,,,,
67.74,0.00166,161.73,,,,,,,
67.76,0.00168,162.53,,,,,,,
67.78,0.00171,163.25,,,,,,,
67.8,0.00173,163.96,,,,,,,
67.82,0.00176,164.58,,,,,,,
67.84,0.00178,165.16,,,,,,,
67.87,0.00181,165.59,,,,,,,
67.89,0.00184,165.87,,,,,,,
67.91,0.00186,166.01,,,,,,,
67.93,0.00189,166.1,,,,,,,
67.96,0.00191,166.11,,,,,,,
67.98,0.00194,165.99,,,,,,,
68.01,0.00196,165.72,,,,,,,
68.04,0.00199,164.58,,,,,,,
68.08,0.00201,160.64,,,,,,,
68.15,0.00199,147.59,,,,,,,
68.18,0.00196,141.56,,,,,,,
68.2,0.00194,136.62,,,,,,,
68.22,0.00191,131.67,,,,,,,
68.23,0.00189,127.17,,,,,,,
68.25,0.00186,122.93,,,,,,,
68.27,0.00184,118.52,,,,,,,
68.29,0.00181,114.37,,,,,,,
68.31,0.00178,110.56,,,,,,,
68.33,0.00176,106.79,,,,,,,
68.34,0.00173,103.07,,,,,,,
68.37,0.00171,98.93,,,,,,,
68.39,0.00168,94.84,,,,,,,
68.42,0.00166,91.05,,,,,,,
68.44,0.00163,87.75,,,,,,,
68.46,0.00161,84.71,,,,,,,
68.48,0.00158,81.71,,,,,,,
68.5,0.00155,78.87,,,,,,,
68.53,0.00153,75.61,,,,,,,
68.56,0.0015,72.17,,,,,,,
68.59,0.00148,69.19,,,,,,,
68.62,0.00145,65.91,,,,,,,
68.65,0.00143,62.64,,,,,,,
68.68,0.0014,59.26,,,,,,,
68.7,0.00138,56.44,,,,,,,
68.73,0.00135,53.39,,,,,,,
68.76,0.00133,50.02,,,,,,,
68.79,0.0013,46.72,,,,,,,
68.81,0.00127,43.75,,,,,,,
68.84,0.00125,40.19,,,,,,,
68.87,0.00122,36.79,,,,,,,
68.9,0.0012,33.42,,,,,,,
68.93,0.00117,30.13,,,,,,,
68.95,0.00115,27.23,,,,,,,
68.98,0.00112,24.3,,,,,,,
69.0,0.0011,21.61,,,,,,,
69.03,0.00107,18.8,,,,,,,
69.05,0.00105,16.25,,,,,,,
69.08,0.00102,13.32,,,,,,,
69.11,0.00099,10.28,,,,,,,
69.13,0.00097,7.53,,,,,,,
69.16,0.00094,4.69,,,,,,,
69.19,0.00092,1.8,,,,,,,
69.22,0.00089,-0.94,,,,,,,
69.25,0.00087,-3.82,,,,,,,
69.27,0.00084,-6.44,,,,,,,
69.31,0.00082,-9.55,,,,,,,
69.33,0.00079,-12.1,,,,,,,
69.36,0.00076,-14.73,,,,,,,
69.4,0.00074,-16.96,,,,,,,
69.52,0.00071,-18.51,,,,,,,
69.56,0.00069,-20.73,,,,,,,
69.6,0.00066,-23.48,,,,,,,
69.63,0.00064,-26.14,,,,,,,
69.66,0.00061,-28.94,,,,,,,
69.69,0.00059,-31.36,,,,,,,
69.72,0.00056,-34.12,,,,,,,
69.75,0.00054,-37.19,,,,,,,
69.77,0.00051,-40.17,,,,,,,
69.8,0.00048,-43.16,,,,,,,
69.82,0.00046,-46.3,,,,,,,
69.82,0.00046,-46.48,,,,,,,
69.83,0.00043,-49.79,,,,,,,
69.85,0.00041,-52.89,,,,,,,
69.86,0.00038,-55.69,,,,,,,
69.88,0.00035,-58.44,,,,,,,
69.89,0.00033,-61.43,,,,,,,
69.91,0.0003,-64.1,,,,,,,
69.92,0.00028,-66.9,,,,,,,
69.94,0.00025,-69.65,,,,,,,
69.95,0.00022,-72.23,,,,,,,
69.96,0.0002,-74.49,,,,,,,
69.98,0.00017,-76.8,,,,,,,
69.99,0.00015,-79.25,,,,,,,
70.01,0.00012,-81.81,,,,,,,
70.03,9e-05,-84.1,,,,,,,
70.04,7e-05,-86.23,,,,,,,
70.06,4e-05,-88.09,,,,,,,
70.07,2e-05,-89.86,,,,,,,
70.09,-1e-05,-91.72,,,,,,,
70.11,-3e-05,-93.39,,,,,,,
70.13,-6e-05,-94.85,,,,,,,
70.15,-9e-05,-96.38,,,,,,,
70.18,-0.00011,-97.87,,,,,,,
70.2,-0.00014,-99.22,,,,,,,
70.23,-0.00016,-100.57,,,,,,,
70.25,-0.00019,-101.77,,,,,,,
70.28,-0.00021,-102.99,,,,,,,
70.31,-0.00024,-104.3,,,,,,,
70.33,-0.00026,-105.42,,,,,,,
70.36,-0.00029,-106.65,,,,,,,
70.39,-0.00032,-107.85,,,,,,,
70.42,-0.00034,-109.28,,,,,,,
70.45,-0.00037,-110.68,,,,,,,
70.47,-0.00039,-112.04,,,,,,,
70.5,-0.00042,-113.46,,,,,,,
70.53,-0.00044,-115.02,,,,,,,
70.56,-0.00047,-116.61,,,,,,,
70.58,-0.00049,-118.12,,,,,,,
70.61,-0.00052,-119.67,,,,,,,
70.64,-0.00055,-121.25,,,,,,,
70.66,-0.00057,-122.7,,,,,,,
70.69,-0.0006,-124.17,,,,,,,
70.71,-0.00062,-125.71,,,,,,,
70.74,-0.00065,-127.27,,,,,,,
70.76,-0.00068,-128.65,,,,,,,
70.79,-0.0007,-129.97,,,,,,,
70.81,-0.00073,-131.4,,,,,,,
70.84,-0.00075,-132.68,,,,,,,
70.86,-0.00078,-134.0,,,,,,,
70.89,-0.0008,-135.34,,,,,,,
70.92,-0.00083,-136.58,,,,,,,
70.94,-0.00086,-137.83,,,,,,,
70.96,-0.00088,-139.03,,,,,,,
70.99,-0.00091,-140.18,,,,,,,
71.01,-0.00093,-141.35,,,,,,,
71.04,-0.00096,-142.42,,,,,,,
71.06,-0.00098,-143.48,,,,,,,
71.09,-0.00101,-144.5,,,,,,,
71.11,-0.00103,-145.55,,,,,,,
71.14,-0.00106,-146.63,,,,,,,
71.17,-0.00108,-147.52,,,,,,,
71.19,-0.00111,-148.53,,,,,,,
71.22,-0.00114,-149.6,,,,,,,
71.24,-0.00116,-150.57,,,,,,,
71.27,-0.00119,-151.51,,,,,,,
71.29,-0.00121,-152.44,,,,,,,
71.32,-0.00124,-153.33,,,,,,,
71.34,-0.00126,-154.19,,,,,,,
71.36,-0.00129,-154.9,,,,,,,
71.39,-0.00131,-155.68,,,,,,,
71.41,-0.00134,-156.31,,,,,,,
71.43,-0.00136,-156.96,,,,,,,
71.46,-0.00139,-157.6,,,,,,,
71.49,-0.00142,-158.12,,,,,,,
71.51,-0.00144,-158.57,,,,,,,
71.54,-0.00147,-159.07,,,,,,,
71.56,-0.00149,-159.51,,,,,,,
71.59,-0.00152,-160.05,,,,,,,
71.61,-0.00154,-160.5,,,,,,,
71.63,-0.00157,-160.9,,,,,,,
71.66,-0.00159,-161.25,,,,,,,
71.68,-0.00162,-161.66,,,,,,,
71.71,-0.00164,-161.99,,,,,,,
71.73,-0.00167,-162.3,,,,,,,
71.76,-0.00169,-162.54,,,,,,,
71.78,-0.00172,-162.74,,,,,,,
71.81,-0.00175,-163.04,,,,,,,
71.83,-0.00177,-163.31,,,,,,,
71.86,-0.0018,-163.62,,,,,,,
71.88,-0.00182,-163.87,,,,,,,
71.91,-0.00185,-164.17,,,,,,,
71.93,-0.00187,-164.39,,,,,,,
71.96,-0.0019,-164.64,,,,,,,
71.99,-0.00192,-164.89,,,,,,,
72.01,-0.00195,-165.01,,,,,,,
72.04,-0.00197,-164.63,,,,,,,
72.08,-0.002,-162.82,,,,,,,
72.16,-0.00197,-147.79,,,,,,,
72.19,-0.00195,-141.66,,,,,,,
72.21,-0.00192,-136.42,,,,,,,
72.23,-0.0019,-132.02,,,,,,,
72.25,-0.00187,-127.66,,,,,,,
72.26,-0.00184,-123.16,,,,,,,
72.28,-0.00182,-118.86,,,,,,,
72.3,-0.00179,-115.2,,,,,,,
72.32,-0.00177,-111.46,,,,,,,
72.33,-0.00174,-107.77,,,,,,,
72.36,-0.00171,-103.74,,,,,,,
72.38,-0.00169,-99.57,,,,,,,
72.41,-0.00166,-95.51,,,,,,,
72.43,-0.00164,-91.86,,,,,,,
72.45,-0.00161,-88.45,,,,,,,
72.48,-0.00159,-84.72,,,,,,,
72.5,-0.00156,-81.31,,,,,,,
72.53,-0.00154,-77.8,,,,,,,
72.56,-0.00151,-74.16,,,,,,,
72.59,-0.00148,-70.18,,,,,,,
72.62,-0.00146,-66.53,,,,,,,
72.65,-0.00143,-62.96,,,,,,,
72.68,-0.00141,-58.87,,,,,,,
72.7,-0.00138,-55.64,,,,,,,
72.73,-0.00136,-52.52,,,,,,,
72.76,-0.00133,-49.13,,,,,,,
72.79,-0.00131,-45.29,,,,,,,
72.82,-0.00128,-41.53,,,,,,,
72.84,-0.00126,-37.99,,,,,,,
72.87,-0.00123,-34.23,,,,,,,
72.9,-0.0012,-30.59,,,,,,,
72.93,-0.00118,-26.86,,,,,,,
72.96,-0.00115,-22.98,,,,,,,
72.99,-0.00113,-19.52,,,,,,,
73.01,-0.0011,-16.44,,,,,,,
73.04,-0.00108,-13.12,,,,,,,
73.06,-0.00105,-9.84,,,,,,,
73.09,-0.00103,-6.72,,,,,,,
73.11,-0.001,-3.46,,,,,,,
73.14,-0.00098,-0.0,,,,,,,
73.17,-0.00095,3.02,,,,,,,
73.19,-0.00093,5.94,,,,,,,
73.22,-0.0009,8.77,,,,,,,
73.24,-0.00088,11.93,,,,,,,
73.27,-0.00085,15.04,,,,,,,
73.3,-0.00082,17.72,,,,,,,
73.32,-0.0008,20.35,,,,,,,
73.35,-0.00077,23.05,,,,,,,
73.38,-0.00075,25.51,,,,,,,
73.41,-0.00072,27.51,,,,,,,
73.45,-0.0007,29.05,,,,,,,
73.5,-0.00067,30.79,,,,,,,
73.55,-0.00065,33.15,,,,,,,
73.58,-0.00062,35.75,,,,,,,
73.61,-0.0006,38.08,,,,,,,
73.63,-0.00057,41.15,,,,,,,
73.64,-0.00054,43.91,,,,,,,
73.66,-0.00052,46.64,,,,,,,
73.68,-0.00049,49.07,,,,,,,
73.7,-0.00047,51.62,,,,,,,
73.73,-0.00044,53.96,,,,,,,
73.75,-0.00041,56.05,,,,,,,
73.78,-0.00039,58.17,,,,,,,
73.81,-0.00036,60.04,,,,,,,
73.84,-0.00034,61.8,,,,,,,
73.88,-0.00031,63.94,,,,,,,
73.91,-0.00029,66.28,,,,,,,
73.95,-0.00026,68.68,,,,,,,
73.98,-0.00024,70.95,,,,,,,
146.09,-0.00021,75.65,,,,,,,
146.12,-0.00019,77.9,,,,,,,
146.15,-0.00016,79.93,,,,,,,
146.17,-0.00014,81.96,,,,,,,
146.2,-0.00011,84.18,,,,,,,
146.22,-8e-05,86.79,,,,,,,
146.24,-6e-05,89.48,,,,,,,
146.26,-3e-05,92.14,,,,,,,
146.27,-1e-05,94.69,,,,,,,
146.29,2e-05,97.22,,,,,,,
146.31,4e-05,99.77,,,,,,,
146.32,7e-05,102.06,,,,,,,
146.34,0.0001,104.27,,,,,,,
146.36,0.00012,106.53,,,,,,,
146.37,0.00015,108.54,,,,,,,
146.39,0.00017,110.67,,,,,,,
146.41,0.0002,112.64,,,,,,,
146.42,0.00022,114.45,,,,,,,
146.44,0.00025,116.22,,,,,,,
146.46,0.00028,117.82,,,,,,,
146.48,0.0003,119.25,,,,,,,
146.5,0.00033,120.72,,,,,,,
146.52,0.00035,122.07,,,,,,,
146.54,0.00038,123.31,,,,,,,
146.57,0.0004,124.36,,,,,,,
146.59,0.00043,125.46,,,,,,,
146.62,0.00046,126.48,,,,,,,
146.64,0.00048,127.45,,,,,,,
146.66,0.00051,128.39,,,,,,,
146.69,0.00053,129.38,,,,,,,
146.71,0.00056,130.3,,,,,,,
146.74,0.00058,131.11,,,,,,,
146.76,0.00061,132.02,,,,,,,
146.79,0.00063,132.82,,,,,,,
146.82,0.00066,133.63,,,,,,,
146.84,0.00068,134.42,,,,,,,
146.87,0.00071,135.3,,,,,,,
146.89,0.00074,136.09,,,,,,,
146.92,0.00076,136.94,,,,,,,
146.94,0.00079,137.65,,,,,,,
146.96,0.00081,138.36,,,,,,,
146.99,0.00084,139.01,,,,,,,
147.01,0.00086,139.75,,,,,,,
147.04,0.00089,140.46,,,,,,,
147.07,0.00091,141.17,,,,,,,
147.09,0.00094,141.92,,,,,,,
147.12,0.00096,142.79,,,,,,,
147.15,0.00099,143.59,,,,,,,
147.18,0.00101,144.55,,,,,,,
147.21,0.00104,145.53,,,,,,,
147.23,0.00107,146.5,,,,,,,
147.26,0.00109,147.57,,,,,,,
147.29,0.00112,148.54,,,,,,,
147.31,0.00114,149.46,,,,,,,
147.33,0.00117,150.43,,,,,,,
147.35,0.00119,151.28,,,,,,,
147.38,0.00122,152.09,,,,,,,
147.4,0.00124,153.0,,,,,,,
147.43,0.00127,153.88,,,,,,,
147.45,0.0013,154.57,,,,,,,
147.48,0.00132,155.28,,,,,,,
147.5,0.00135,155.93,,,,,,,
147.53,0.00137,156.52,,,,,,,
147.55,0.0014,157.02,,,,,,,
147.57,0.00142,157.47,,,,,,,
147.59,0.00145,157.85,,,,,,,
147.61,0.00147,158.12,,,,,,,
147.64,0.0015,158.44,,,,,,,
147.66,0.00153,158.69,,,,,,,
147.69,0.00155,158.8,,,,,,,
147.71,0.00158,158.82,,,,,,,
147.74,0.0016,158.98,,,,,,,
147.77,0.00163,159.01,,,,,,,
147.8,0.00165,159.11,,,,,,,
147.83,0.00168,159.21,,,,,,,
147.86,0.0017,159.43,,,,,,,
147.89,0.00173,159.79,,,,,,,
147.91,0.00176,160.22,,,,,,,
147.94,0.00178,160.73,,,,,,,
147.96,0.00181,161.28,,,,,,,
147.98,0.00183,161.77,,,,,,,
148.01,0.00186,162.21,,,,,,,
148.03,0.00188,162.66,,,,,,,
148.05,0.00191,162.97,,,,,,,
148.08,0.00193,163.28,,,,,,,
148.1,0.00196,163.39,,,,,,,
148.12,0.00199,163.01,,,,,,,
148.16,0.00201,161.15,,,,,,,
148.25,0.00198,145.65,,,,,,,
148.27,0.00196,140.19,,,,,,,
148.29,0.00193,135.62,,,,,,,
148.3,0.00191,131.25,,,,,,,
148.32,0.00188,126.91,,,,,,,
148.34,0.00186,122.71,,,,,,,
148.36,0.00183,118.21,,,,,,,
148.38,0.00181,114.17,,,,,,,
148.4,0.00178,110.09,,,,,,,
148.42,0.00175,106.36,,,,,,,
148.43,0.00173,102.73,,,,,,,
148.46,0.0017,99.0,,,,,,,
148.48,0.00168,95.27,,,,,,,
148.5,0.00165,91.43,,,,,,,
148.53,0.00163,87.49,,,,,,,
148.56,0.0016,83.68,,,,,,,
148.59,0.00158,79.59,,,,,,,
148.62,0.00155,75.3,,,,,,,
148.65,0.00152,71.93,,,,,,,
148.67,0.0015,68.39,,,,,,,
148.7,0.00147,64.86,,,,,,,
148.73,0.00145,61.4,,,,,,,
148.75,0.00142,58.26,,,,,,,
148.78,0.0014,55.35,,,,,,,
148.8,0.00137,52.31,,,,,,,
148.83,0.00135,49.12,,,,,,,
148.85,0.00132,46.11,,,,,,,
148.88,0.00129,43.21,,,,,,,
148.91,0.00127,40.0,,,,,,,
148.93,0.00124,36.79,,,,,,,
148.96,0.00122,33.73,,,,,,,
148.99,0.00119,30.73,,,,,,,
149.02,0.00117,27.59,,,,,,,
149.05,0.00114,24.52,,,,,,,
149.07,0.00112,21.61,,,,,,,
149.1,0.00109,18.46,,,,,,,
149.14,0.00106,14.82,,,,,,,
149.16,0.00104,11.79,,,,,,,
149.19,0.00101,8.65,,,,,,,
149.21,0.00099,5.92,,,,,,,
149.24,0.00096,3.5,,,,,,,
149.26,0.00094,0.44,,,,,,,
149.29,0.00091,-2.55,,,,,,,
149.32,0.00089,-5.71,,,,,,,
149.35,0.00086,-8.32,,,,,,,
149.37,0.00083,-10.89,,,,,,,
149.4,0.00081,-13.77,,,,,,,
149.43,0.00078,-16.21,,,,,,,
149.47,0.00076,-17.59,,,,,,,
149.58,0.00073,-18.49,,,,,,,
149.63,0.00071,-20.79,,,,,,,
149.67,0.00068,-23.55,,,,,,,
149.7,0.00066,-26.19,,,,,,,
149.73,0.00063,-28.64,,,,,,,
149.76,0.00061,-31.3,,,,,,,
149.79,0.00058,-33.98,,,,,,,
149.82,0.00056,-36.62,,,,,,,
149.82,0.00055,-36.93,,,,,,,
149.84,0.00053,-40.13,,,,,,,
149.87,0.0005,-43.21,,,,,,,
149.89,0.00048,-46.64,,,,,,,
149.9,0.00045,-49.52,,,,,,,
149.91,0.00043,-52.27,,,,,,,
149.93,0.0004,-55.04,,,,,,,
149.94,0.00037,-57.93,,,,,,,
149.96,0.00035,-61.04,,,,,,,
149.97,0.00032,-63.9,,,,,,,
149.99,0.0003,-66.49,,,,,,,
150.0,0.00027,-69.05,,,,,,,
150.02,0.00024,-71.57,,,,,,,
150.03,0.00022,-73.96,,,,,,,
150.04,0.00019,-76.37,,,,,,,
150.06,0.00017,-78.9,,,,,,,
150.08,0.00014,-81.3,,,,,,,
150.09,0.00012,-83.63,,,,,,,
150.11,9e-05,-85.78,,,,,,,
150.13,6e-05,-87.72,,,,,,,
150.15,4e-05,-89.69,,,,,,,
150.17,1e-05,-91.67,,,,,,,
150.19,-1e-05,-93.64,,,,,,,
150.21,-4e-05,-95.38,,,,,,,
150.23,-6e-05,-96.94,,,,,,,
150.25,-9e-05,-98.28,,,,,,,
150.28,-0.00012,-99.75,,,,,,,
150.3,-0.00014,-101.31,,,,,,,
150.33,-0.00017,-102.76,,,,,,,
150.36,-0.00019,-104.35,,,,,,,
150.38,-0.00022,-105.67,,,,,,,
150.41,-0.00024,-106.96,,,,,,,
150.43,-0.00027,-108.26,,,,,,,
150.46,-0.00029,-109.66,,,,,,,
150.48,-0.00032,-110.86,,,,,,,
150.5,-0.00034,-111.92,,,,,,,
150.53,-0.00037,-113.12,,,,,,,
150.55,-0.0004,-114.27,,,,,,,
150.58,-0.00042,-115.54,,,,,,,
150.6,-0.00045,-116.62,,,,,,,
150.63,-0.00047,-117.77,,,,,,,
150.66,-0.0005,-118.98,,,,,,,
150.69,-0.00052,-120.19,,,,,,,
150.72,-0.00055,-121.39,,,,,,,
150.74,-0.00057,-122.5,,,,,,,
150.77,-0.0006,-123.68,,,,,,,
150.79,-0.00063,-125.03,,,,,,,
150.82,-0.00065,-126.32,,,,,,,
150.84,-0.00068,-127.56,,,,,,,
150.87,-0.0007,-128.79,,,,,,,
150.9,-0.00073,-130.14,,,,,,,
150.92,-0.00075,-131.28,,,,,,,
150.95,-0.00078,-132.59,,,,,,,
150.98,-0.0008,-134.02,,,,,,,
151.0,-0.00083,-135.31,,,,,,,
151.03,-0.00085,-136.53,,,,,,,
151.05,-0.00088,-137.89,,,,,,,
151.08,-0.0009,-139.19,,,,,,,
151.1,-0.00093,-140.33,,,,,,,
151.13,-0.00095,-141.62,,,,,,,
151.16,-0.00098,-142.78,,,,,,,
151.18,-0.001,-143.95,,,,,,,
151.21,-0.00103,-145.23,,,,,,,
151.23,-0.00106,-146.44,,,,,,,
151.26,-0.00108,-147.53,,,,,,,
151.28,-0.00111,-148.62,,,,,,,
151.31,-0.00113,-149.82,,,,,,,
151.33,-0.00116,-150.99,,,,,,,
151.36,-0.00118,-151.9,,,,,,,
151.38,-0.00121,-152.84,,,,,,,
151.4,-0.00123,-153.77,,,,,,,
151.42,-0.00126,-154.6,,,,,,,
151.45,-0.00128,-155.61,,,,,,,
151.48,-0.00131,-156.49,,,,,,,
151.5,-0.00134,-157.12,,,,,,,
151.52,-0.00136,-157.83,,,,,,,
151.54,-0.00139,-158.44,,,,,,,
151.56,-0.00141,-158.93,,,,,,,
151.58,-0.00144,-159.41,,,,,,,
151.61,-0.00146,-159.89,,,,,,,
151.63,-0.00149,-160.19,,,,,,,
151.66,-0.00151,-160.4,,,,,,,
151.69,-0.00154,-160.57,,,,,,,
151.71,-0.00156,-160.74,,,,,,,
151.74,-0.00159,-160.9,,,,,,,
151.77,-0.00162,-161.16,,,,,,,
151.8,-0.00164,-161.48,,,,,,,
151.82,-0.00167,-161.76,,,,,,,
151.84,-0.00169,-162.08,,,,,,,
151.87,-0.00172,-162.32,,,,,,,
151.89,-0.00174,-162.65,,,,,,,
151.92,-0.00177,-162.86,,,,,,,
151.94,-0.00179,-163.08,,,,,,,
151.97,-0.00182,-163.34,,,,,,,
152.0,-0.00185,-163.6,,,,,,,
152.02,-0.00187,-163.84,,,,,,,
152.04,-0.0019,-164.13,,,,,,,
152.07,-0.00192,-164.38,,,,,,,
152.09,-0.00195,-164.55,,,,,,,
152.12,-0.00197,-164.3,,,,,,,
152.15,-0.002,-163.13,,,,,,,
152.25,-0.00197,-145.58,,,,,,,
152.28,-0.00195,-139.8,,,,,,,
152.3,-0.00192,-134.79,,,,,,,
152.32,-0.0019,-130.12,,,,,,,
152.33,-0.00187,-125.5,,,,,,,
152.35,-0.00184,-121.14,,,,,,,
152.37,-0.00182,-116.86,,,,,,,
152.39,-0.00179,-112.92,,,,,,,
152.41,-0.00177,-109.03,,,,,,,
152.43,-0.00174,-105.4,,,,,,,
152.45,-0.00172,-101.65,,,,,,,
152.47,-0.00169,-97.99,,,,,,,
152.49,-0.00167,-94.61,,,,,,,
152.51,-0.00164,-91.08,,,,,,,
152.53,-0.00162,-87.64,,,,,,,
152.56,-0.00159,-84.22,,,,,,,
152.58,-0.00156,-80.73,,,,,,,
152.61,-0.00154,-77.25,,,,,,,
152.64,-0.00151,-73.71,,,,,,,
152.67,-0.00149,-70.16,,,,,,,
152.7,-0.00146,-66.74,,,,,,,
152.72,-0.00144,-63.39,,,,,,,
152.75,-0.00141,-59.88,,,,,,,
152.78,-0.00139,-56.51,,,,,,,
152.81,-0.00136,-52.92,,,,,,,
152.84,-0.00133,-49.48,,,,,,,
152.87,-0.00131,-46.28,,,,,,,
152.89,-0.00128,-43.16,,,,,,,
152.92,-0.00126,-39.98,,,,,,,
152.94,-0.00123,-36.74,,,,,,,
152.97,-0.00121,-33.51,,,,,,,
153.0,-0.00118,-30.3,,,,,,,
153.02,-0.00116,-27.35,,,,,,,
153.05,-0.00113,-24.35,,,,,,,
153.08,-0.00111,-21.26,,,,,,,
153.1,-0.00108,-18.34,,,,,,,
153.13,-0.00106,-15.56,,,,,,,
153.15,-0.00103,-12.72,,,,,,,
153.18,-0.001,-9.84,,,,,,,
153.21,-0.00098,-7.04,,,,,,,
153.23,-0.00095,-4.22,,,,,,,
153.26,-0.00093,-1.3,,,,,,,
153.29,-0.0009,1.35,,,,,,,
153.31,-0.00088,4.06,,,,,,,
153.34,-0.00085,6.64,,,,,,,
153.36,-0.00083,8.86,,,,,,,
153.39,-0.0008,11.24,,,,,,,
153.41,-0.00078,13.54,,,,,,,
153.44,-0.00075,15.91,,,,,,,
153.46,-0.00072,18.34,,,,,,,
153.49,-0.0007,21.03,,,,,,,
153.53,-0.00067,23.56,,,,,,,
153.56,-0.00065,25.46,,,,,,,
153.61,-0.00062,27.27,,,,,,,
153.66,-0.0006,29.35,,,,,,,
153.71,-0.00057,31.76,,,,,,,
153.74,-0.00055,34.11,,,,,,,
153.77,-0.00052,36.96,,,,,,,
153.79,-0.0005,40.04,,,,,,,
153.81,-0.00047,42.96,,,,,,,
153.83,-0.00045,45.72,,,,,,,
153.84,-0.00042,48.32,,,,,,,
153.87,-0.0004,51.02,,,,,,,
153.89,-0.00037,53.58,,,,,,,
153.92,-0.00034,55.84,,,,,,,
153.94,-0.00032,57.86,,,,,,,
153.97,-0.00029,59.78,,,,,,,
154.0,-0.00027,61.64,,,,,,,
154.03,-0.00024,63.43,,,,,,,
154.06,-0.00022,65.33,,,,,,,
386.35,-0.0002,74.27,,,,,,,
386.38,-0.00018,76.23,,,,,,,
386.41,-0.00015,78.19,,,,,,,
386.44,-0.00012,80.16,,,,,,,
386.47,-0.0001,82.08,,,,,,,
386.49,-7e-05,84.17,,,,,,,
386.51,-5e-05,86.69,,,,,,,
386.53,-2e-05,89.12,,,,,,,
386.55,0.0,91.59,,,,,,,
386.56,3e-05,93.9,,,,,,,
386.58,5e-05,96.24,,,,,,,
386.6,8e-05,98.64,,,,,,,
386.61,0.0001,100.89,,,,,,,
386.63,0.00013,103.04,,,,,,,
386.65,0.00016,105.16,,,,,,,
386.66,0.00018,107.36,,,,,,,
386.68,0.00021,109.36,,,,,,,
386.7,0.00023,111.09,,,,,,,
386.72,0.00026,112.77,,,,,,,
386.74,0.00028,114.46,,,,,,,
386.76,0.00031,116.03,,,,,,,
386.78,0.00034,117.44,,,,,,,
386.8,0.00036,118.91,,,,,,,
386.82,0.00039,120.3,,,,,,,
386.85,0.00041,121.46,,,,,,,
386.87,0.00044,122.66,,,,,,,
386.9,0.00046,123.89,,,,,,,
386.92,0.00049,125.08,,,,,,,
386.95,0.00051,126.25,,,,,,,
386.97,0.00054,127.27,,,,,,,
386.99,0.00056,128.22,,,,,,,
387.01,0.00059,129.14,,,,,,,
387.03,0.00062,129.96,,,,,,,
387.06,0.00064,130.78,,,,,,,
387.08,0.00067,131.66,,,,,,,
387.11,0.00069,132.51,,,,,,,
387.14,0.00072,133.36,,,,,,,
387.17,0.00074,134.2,,,,,,,
387.19,0.00077,135.07,,,,,,,
387.22,0.00079,136.0,,,,,,,
387.25,0.00082,137.06,,,,,,,
387.28,0.00085,138.19,,,,,,,
387.3,0.00087,139.11,,,,,,,
387.32,0.0009,140.01,,,,,,,
387.35,0.00092,141.0,,,,,,,
387.38,0.00095,141.96,,,,,,,
387.4,0.00097,143.0,,,,,,,
387.43,0.001,144.1,,,,,,,
387.46,0.00102,145.23,,,,,,,
387.49,0.00105,146.39,,,,,,,
387.51,0.00107,147.44,,,,,,,
387.54,0.0011,148.56,,,,,,,
387.57,0.00113,149.7,,,,,,,
387.59,0.00115,150.8,,,,,,,
387.62,0.00118,151.96,,,,,,,
387.64,0.0012,152.95,,,,,,,
387.66,0.00123,154.02,,,,,,,
387.69,0.00125,155.03,,,,,,,
387.71,0.00128,155.87,,,,,,,
387.73,0.0013,156.66,,,,,,,
387.75,0.00133,157.42,,,,,,,
387.78,0.00135,158.06,,,,,,,
387.8,0.00138,158.67,,,,,,,
387.82,0.00141,159.24,,,,,,,
387.84,0.00143,159.71,,,,,,,
387.87,0.00146,160.12,,,,,,,
387.9,0.00148,160.49,,,,,,,
387.92,0.00151,160.76,,,,,,,
387.94,0.00153,160.96,,,,,,,
387.97,0.00156,161.17,,,,,,,
387.99,0.00158,161.43,,,,,,,
388.02,0.00161,161.61,,,,,,,
388.04,0.00164,161.81,,,,,,,
388.07,0.00166,161.95,,,,,,,
388.09,0.00169,162.1,,,,,,,
388.12,0.00171,162.2,,,,,,,
388.14,0.00174,162.27,,,,,,,
388.17,0.00176,162.37,,,,,,,
388.2,0.00179,162.53,,,,,,,
388.23,0.00181,162.68,,,,,,,
388.26,0.00184,162.94,,,,,,,
388.28,0.00186,163.18,,,,,,,
388.31,0.00189,163.46,,,,,,,
388.33,0.00191,163.79,,,,,,,
388.35,0.00194,164.05,,,,,,,
388.38,0.00196,163.98,,,,,,,
388.4,0.00199,163.26,,,,,,,
388.44,0.00202,160.38,,,,,,,
388.52,0.00199,144.4,,,,,,,
388.55,0.00196,137.64,,,,,,,
388.57,0.00194,132.73,,,,,,,
388.59,0.00191,127.72,,,,,,,
388.6,0.00189,123.42,,,,,,,
388.62,0.00186,118.92,,,,,,,
388.64,0.00184,114.7,,,,,,,
388.66,0.00181,110.68,,,,,,,
388.67,0.00178,106.93,,,,,,,
388.69,0.00176,103.25,,,,,,,
388.71,0.00173,99.78,,,,,,,
388.73,0.00171,95.88,,,,,,,
388.75,0.00168,92.32,,,,,,,
388.77,0.00166,88.58,,,,,,,
388.8,0.00163,84.71,,,,,,,
388.82,0.00161,80.98,,,,,,,
388.85,0.00158,76.86,,,,,,,
388.88,0.00155,73.21,,,,,,,
388.91,0.00153,69.42,,,,,,,
388.95,0.0015,64.99,,,,,,,
388.97,0.00148,61.12,,,,,,,
389.01,0.00145,56.99,,,,,,,
389.03,0.00143,53.4,,,,,,,
389.06,0.0014,50.09,,,,,,,
389.08,0.00138,46.67,,,,,,,
389.11,0.00135,43.63,,,,,,,
389.13,0.00133,40.5,,,,,,,
389.15,0.0013,37.61,,,,,,,
389.18,0.00128,34.66,,,,,,,
389.2,0.00125,31.91,,,,,,,
389.23,0.00123,28.33,,,,,,,
389.26,0.0012,25.01,,,,,,,
389.29,0.00117,21.96,,,,,,,
389.32,0.00115,18.84,,,,,,,
389.34,0.00112,15.93,,,,,,,
389.37,0.0011,12.63,,,,,,,
389.4,0.00107,9.3,,,,,,,
389.43,0.00105,5.83,,,,,,,
389.46,0.00102,2.28,,,,,,,
389.49,0.001,-1.22,,,,,,,
389.52,0.00097,-4.42,,,,,,,
389.55,0.00094,-7.75,,,,,,,
389.58,0.00092,-10.75,,,,,,,
389.6,0.00089,-13.75,,,,,,,
389.63,0.00087,-16.76,,,,,,,
389.73,0.00084,-18.91,,,,,,,
389.81,0.00082,-22.06,,,,,,,
389.82,0.00081,-22.61,,,,,,,
389.85,0.00079,-25.35,,,,,,,
389.89,0.00077,-28.76,,,,,,,
389.92,0.00074,-31.89,,,,,,,
389.96,0.00072,-35.03,,,,,,,
389.99,0.00069,-38.41,,,,,,,
390.01,0.00067,-42.04,,,,,,,
390.04,0.00064,-45.53,,,,,,,
390.05,0.00061,-49.15,,,,,,,
390.07,0.00059,-52.7,,,,,,,
390.08,0.00056,-55.89,,,,,,,
390.09,0.00053,-58.92,,,,,,,
390.11,0.00051,-62.04,,,,,,,
390.12,0.00048,-65.0,,,,,,,
390.14,0.00046,-67.96,,,,,,,
390.15,0.00043,-70.81,,,,,,,
390.16,0.0004,-73.48,,,,,,,
390.17,0.00038,-76.18,,,,,,,
390.19,0.00035,-78.7,,,,,,,
390.2,0.00033,-81.15,,,,,,,
390.21,0.0003,-83.52,,,,,,,
390.23,0.00028,-85.72,,,,,,,
390.24,0.00025,-87.99,,,,,,,
390.25,0.00023,-90.11,,,,,,,
390.27,0.0002,-92.27,,,,,,,
390.28,0.00018,-94.26,,,,,,,
390.3,0.00015,-95.94,,,,,,,
390.31,0.00012,-97.53,,,,,,,
390.33,0.0001,-99.14,,,,,,,
390.35,7e-05,-100.52,,,,,,,
390.37,5e-05,-101.79,,,,,,,
390.39,2e-05,-102.96,,,,,,,
390.41,-0.0,-104.12,,,,,,,
390.44,-3e-05,-105.09,,,,,,,
390.46,-5e-05,-106.11,,,,,,,
390.49,-8e-05,-107.07,,,,,,,
390.52,-0.00011,-107.89,,,,,,,
390.54,-0.00013,-108.73,,,,,,,
390.57,-0.00016,-109.63,,,,,,,
390.59,-0.00018,-110.57,,,,,,,
390.62,-0.00021,-111.46,,,,,,,
390.65,-0.00023,-112.36,,,,,,,
390.67,-0.00026,-113.38,,,,,,,
390.71,-0.00028,-114.45,,,,,,,
390.74,-0.00031,-115.73,,,,,,,
390.77,-0.00033,-117.0,,,,,,,
390.8,-0.00036,-118.44,,,,,,,
390.83,-0.00039,-119.87,,,,,,,
390.85,-0.00041,-121.09,,,,,,,
390.87,-0.00044,-122.18,,,,,,,
390.89,-0.00046,-123.34,,,,,,,
390.92,-0.00049,-124.44,,,,,,,
390.94,-0.00051,-125.51,,,,,,,
390.96,-0.00054,-126.65,,,,,,,
390.99,-0.00057,-127.67,,,,,,,
391.01,-0.00059,-128.73,,,,,,,
391.04,-0.00062,-129.8,,,,,,,
391.07,-0.00064,-130.77,,,,,,,
391.09,-0.00067,-131.86,,,,,,,
391.12,-0.00069,-132.8,,,,,,,
391.15,-0.00072,-133.74,,,,,,,
391.18,-0.00074,-134.98,,,,,,,
391.21,-0.00077,-136.33,,,,,,,
391.24,-0.00079,-137.65,,,,,,,
391.26,-0.00082,-138.87,,,,,,,
391.28,-0.00084,-140.06,,,,,,,
391.31,-0.00087,-141.27,,,,,,,
391.33,-0.0009,-142.48,,,,,,,
391.35,-0.00092,-143.59,,,,,,,
391.38,-0.00095,-144.57,,,,,,,
391.4,-0.00097,-145.49,,,,,,,
391.42,-0.001,-146.27,,,,,,,
391.45,-0.00102,-147.12,,,,,,,
391.48,-0.00105,-148.23,,,,,,,
391.51,-0.00107,-149.13,,,,,,,
391.53,-0.0011,-149.95,,,,,,,
391.56,-0.00113,-150.83,,,,,,,
391.58,-0.00115,-151.66,,,,,,,
391.61,-0.00118,-152.56,,,,,,,
391.63,-0.0012,-153.46,,,,,,,
391.66,-0.00123,-154.41,,,,,,,
391.69,-0.00125,-155.21,,,,,,,
391.71,-0.00128,-156.03,,,,,,,
391.73,-0.0013,-156.85,,,,,,,
391.76,-0.00133,-157.58,,,,,,,
391.78,-0.00135,-158.34,,,,,,,
391.81,-0.00138,-159.09,,,,,,,
391.83,-0.00141,-159.85,,,,,,,
391.86,-0.00143,-160.56,,,,,,,
391.88,-0.00146,-161.13,,,,,,,
391.9,-0.00148,-161.68,,,,,,,
391.93,-0.00151,-162.22,,,,,,,
391.96,-0.00153,-162.81,,,,,,,
391.98,-0.00156,-163.34,,,,,,,
392.01,-0.00158,-163.81,,,,,,,
392.03,-0.00161,-164.26,,,,,,,
392.05,-0.00163,-164.75,,,,,,,
392.07,-0.00166,-165.2,,,,,,,
392.1,-0.00169,-165.58,,,,,,,
392.12,-0.00171,-165.83,,,,,,,
392.14,-0.00174,-166.02,,,,,,,
392.16,-0.00176,-166.11,,,,,,,
392.19,-0.00179,-166.12,,,,,,,
392.21,-0.00181,-166.18,,,,,,,
392.23,-0.00184,-166.17,,,,,,,
392.26,-0.00186,-166.16,,,,,,,
392.28,-0.00189,-165.99,,,,,,,
392.31,-0.00191,-165.8,,,,,,,
392.33,-0.00194,-165.56,,,,,,,
392.35,-0.00197,-165.22,,,,,,,
392.38,-0.00199,-164.46,,,,,,,
392.42,-0.00202,-162.03,,,,,,,
392.51,-0.00199,-145.7,,,,,,,
392.53,-0.00196,-140.11,,,,,,,
392.55,-0.00194,-135.07,,,,,,,
392.57,-0.00191,-130.13,,,,,,,
392.59,-0.00189,-125.93,,,,,,,
392.61,-0.00186,-121.6,,,,,,,
392.62,-0.00184,-117.71,,,,,,,
392.64,-0.00181,-113.48,,,,,,,
392.66,-0.00178,-109.76,,,,,,,
392.68,-0.00176,-106.1,,,,,,,
392.7,-0.00173,-102.54,,,,,,,
392.72,-0.00171,-99.09,,,,,,,
392.74,-0.00168,-95.03,,,,,,,
392.77,-0.00166,-90.6,,,,,,,
392.8,-0.00163,-86.61,,,,,,,
392.82,-0.00161,-82.93,,,,,,,
392.85,-0.00158,-79.34,,,,,,,
392.88,-0.00155,-75.84,,,,,,,
392.9,-0.00153,-72.12,,,,,,,
392.93,-0.0015,-68.2,,,,,,,
392.96,-0.00148,-64.58,,,,,,,
392.99,-0.00145,-61.31,,,,,,,
393.01,-0.00143,-57.68,,,,,,,
393.04,-0.0014,-54.1,,,,,,,
393.07,-0.00138,-50.5,,,,,,,
393.1,-0.00135,-46.91,,,,,,,
393.13,-0.00132,-43.53,,,,,,,
393.15,-0.0013,-40.18,,,,,,,
393.18,-0.00127,-36.69,,,,,,,
393.21,-0.00125,-33.3,,,,,,,
393.24,-0.00122,-29.79,,,,,,,
393.26,-0.0012,-26.72,,,,,,,
393.29,-0.00117,-23.36,,,,,,,
393.32,-0.00115,-19.89,,,,,,,
393.35,-0.00112,-16.15,,,,,,,
393.38,-0.0011,-12.36,,,,,,,
393.41,-0.00107,-9.1,,,,,,,
393.43,-0.00104,-6.01,,,,,,,
393.46,-0.00102,-2.78,,,,,,,
393.48,-0.00099,0.42,,,,,,,
393.51,-0.00097,3.69,,,,,,,
393.54,-0.00094,6.79,,,,,,,
393.56,-0.00092,9.83,,,,,,,
393.59,-0.00089,12.85,,,,,,,
393.61,-0.00087,15.3,,,,,,,
393.63,-0.00084,17.7,,,,,,,
393.66,-0.00082,20.46,,,,,,,
393.68,-0.00079,23.0,,,,,,,
393.71,-0.00077,25.51,,,,,,,
393.75,-0.00074,27.58,,,,,,,
393.8,-0.00072,29.41,,,,,,,
393.86,-0.00069,31.51,,,,,,,
393.92,-0.00067,34.75,,,,,,,
393.95,-0.00064,38.21,,,,,,,
393.97,-0.00061,41.81,,,,,,,
393.99,-0.00059,45.25,,,,,,,
394.01,-0.00056,48.17,,,,,,,
394.03,-0.00054,50.96,,,,,,,
394.04,-0.00051,53.73,,,,,,,
394.06,-0.00048,56.16,,,,,,,
394.08,-0.00046,58.52,,,,,,,
394.1,-0.00043,60.87,,,,,,,
394.13,-0.00041,62.9,,,,,,,
394.15,-0.00038,64.86,,,,,,,
394.18,-0.00036,66.63,,,,,,,
394.21,-0.00033,68.29,,,,,,,
394.24,-0.00031,70.0,,,,,,,
394.28,-0.00028,72.13,,,,,,,
394.31,-0.00026,74.0,,,,,,,
786.77,-0.00024,72.04,,,,,,,
786.8,-0.00021,74.15,,,,,,,
786.83,-0.00019,76.34,,,,,,,
786.86,-0.00016,78.54,,,,,,,
786.89,-0.00014,80.77,,,,,,,
786.91,-0.00011,82.79,,,,,,,
786.93,-9e-05,84.86,,,,,,,
786.96,-6e-05,87.41,,,,,,,
786.98,-4e-05,89.8,,,,,,,
786.99,-1e-05,92.16,,,,,,,
787.01,2e-05,94.6,,,,,,,
787.03,4e-05,97.04,,,,,,,
787.04,7e-05,99.59,,,,,,,
787.06,9e-05,101.97,,,,,,,
787.08,0.00012,104.3,,,,,,,
787.09,0.00015,106.51,,,,,,,
787.11,0.00017,108.85,,,,,,,
787.13,0.0002,111.0,,,,,,,
787.15,0.00022,113.09,,,,,,,
787.17,0.00025,115.04,,,,,,,
787.18,0.00027,116.77,,,,,,,
787.2,0.0003,118.46,,,,,,,
787.22,0.00033,120.05,,,,,,,
787.24,0.00035,121.44,,,,,,,
787.25,0.00038,122.65,,,,,,,
787.28,0.0004,123.88,,,,,,,
787.3,0.00043,125.08,,,,,,,
787.32,0.00045,126.19,,,,,,,
787.35,0.00048,127.19,,,,,,,
787.37,0.0005,128.26,,,,,,,
787.4,0.00053,129.37,,,,,,,
787.43,0.00056,130.28,,,,,,,
787.45,0.00058,131.34,,,,,,,
787.48,0.00061,132.32,,,,,,,
787.51,0.00063,133.39,,,,,,,
787.53,0.00066,134.42,,,,,,,
787.56,0.00068,135.67,,,,,,,
787.59,0.00071,136.84,,,,,,,
787.61,0.00073,137.87,,,,,,,
787.64,0.00076,138.96,,,,,,,
787.67,0.00079,140.18,,,,,,,
787.69,0.00081,141.27,,,,,,,
787.72,0.00084,142.34,,,,,,,
787.74,0.00086,143.51,,,,,,,
787.77,0.00089,144.53,,,,,,,
787.79,0.00091,145.58,,,,,,,
787.82,0.00094,146.48,,,,,,,
787.84,0.00096,147.39,,,,,,,
787.87,0.00099,148.3,,,,,,,
787.89,0.00102,149.15,,,,,,,
787.91,0.00104,150.04,,,,,,,
787.93,0.00107,150.8,,,,,,,
787.96,0.00109,151.57,,,,,,,
787.98,0.00112,152.46,,,,,,,
788.0,0.00114,153.13,,,,,,,
788.03,0.00117,153.89,,,,,,,
788.05,0.00119,154.46,,,,,,,
788.08,0.00122,154.9,,,,,,,
788.1,0.00125,155.34,,,,,,,
788.12,0.00127,155.79,,,,,,,
788.15,0.0013,156.12,,,,,,,
788.17,0.00132,156.39,,,,,,,
788.2,0.00135,156.62,,,,,,,
788.23,0.00137,156.91,,,,,,,
788.26,0.0014,157.25,,,,,,,
788.29,0.00142,157.65,,,,,,,
788.32,0.00145,158.18,,,,,,,
788.34,0.00147,158.8,,,,,,,
788.37,0.0015,159.47,,,,,,,
788.39,0.00153,160.1,,,,,,,
788.42,0.00155,160.64,,,,,,,
788.44,0.00158,161.22,,,,,,,
788.47,0.0016,161.83,,,,,,,
788.49,0.00163,162.41,,,,,,,
788.52,0.00165,162.93,,,,,,,
788.54,0.00168,163.38,,,,,,,
788.56,0.00171,163.82,,,,,,,
788.58,0.00173,164.14,,,,,,,
788.6,0.00176,164.41,,,,,,,
788.62,0.00178,164.6,,,,,,,
788.65,0.00181,164.67,,,,,,,
788.67,0.00183,164.64,,,,,,,
788.7,0.00186,164.57,,,,,,,
788.73,0.00188,164.51,,,,,,,
788.75,0.00191,164.42,,,,,,,
788.78,0.00194,164.24,,,,,,,
788.8,0.00196,164.01,,,,,,,
788.83,0.00199,163.24,,,,,,,
788.88,0.00201,159.84,,,,,,,
788.95,0.00199,147.55,,,,,,,
788.97,0.00196,141.75,,,,,,,
788.99,0.00194,136.72,,,,,,,
789.01,0.00191,132.09,,,,,,,
789.03,0.00188,127.85,,,,,,,
789.05,0.00186,123.36,,,,,,,
789.07,0.00183,118.73,,,,,,,
789.09,0.00181,114.58,,,,,,,
789.11,0.00178,111.23,,,,,,,
789.13,0.00176,107.32,,,,,,,
789.15,0.00173,103.42,,,,,,,
789.17,0.0017,99.43,,,,,,,
789.19,0.00168,95.86,,,,,,,
789.21,0.00165,92.72,,,,,,,
789.24,0.00163,89.26,,,,,,,
789.26,0.0016,85.93,,,,,,,
789.29,0.00158,82.03,,,,,,,
789.32,0.00155,78.22,,,,,,,
789.35,0.00152,74.56,,,,,,,
789.38,0.0015,70.9,,,,,,,
789.42,0.00147,66.83,,,,,,,
789.45,0.00145,62.91,,,,,,,
789.47,0.00142,59.54,,,,,,,
789.5,0.0014,56.24,,,,,,,
789.53,0.00137,52.62,,,,,,,
789.55,0.00135,49.42,,,,,,,
789.58,0.00132,46.23,,,,,,,
789.6,0.00129,42.96,,,,,,,
789.63,0.00127,39.94,,,,,,,
789.65,0.00124,36.82,,,,,,,
789.68,0.00122,33.73,,,,,,,
789.71,0.00119,30.77,,,,,,,
789.73,0.00117,27.71,,,,,,,
789.76,0.00114,24.74,,,,,,,
789.79,0.00112,21.89,,,,,,,
789.81,0.00109,18.94,,,,,,,
789.82,0.00108,18.31,,,,,,,
789.84,0.00107,16.17,,,,,,,
789.87,0.00104,13.28,,,,,,,
789.9,0.00101,9.86,,,,,,,
789.93,0.00099,6.64,,,,,,,
789.96,0.00096,3.54,,,,,,,
789.99,0.00094,0.34,,,,,,,
790.02,0.00091,-2.92,,,,,,,
790.05,0.00089,-6.5,,,,,,,
790.07,0.00086,-9.57,,,,,,,
790.1,0.00084,-12.39,,,,,,,
790.13,0.00081,-15.31,,,,,,,
790.16,0.00079,-17.58,,,,,,,
790.26,0.00076,-18.15,,,,,,,
790.32,0.00073,-20.7,,,,,,,
790.36,0.00071,-23.61,,,,,,,
790.39,0.00068,-26.51,,,,,,,
790.42,0.00066,-28.62,,,,,,,
790.45,0.00063,-30.84,,,,,,,
790.49,0.00061,-33.6,,,,,,,
790.52,0.00058,-36.39,,,,,,,
790.54,0.00056,-39.78,,,,,,,
790.56,0.00053,-42.84,,,,,,,
790.58,0.00051,-46.59,,,,,,,
790.6,0.00048,-50.28,,,,,,,
790.62,0.00045,-53.71,,,,,,,
790.63,0.00043,-56.97,,,,,,,
790.65,0.0004,-60.27,,,,,,,
790.66,0.00038,-63.09,,,,,,,
790.67,0.00035,-65.94,,,,,,,
790.69,0.00032,-68.75,,,,,,,
790.7,0.0003,-71.52,,,,,,,
790.72,0.00027,-74.36,,,,,,,
790.73,0.00024,-77.07,,,,,,,
790.75,0.00022,-79.68,,,,,,,
790.76,0.00019,-82.19,,,,,,,
790.78,0.00017,-84.68,,,,,,,
790.79,0.00014,-86.97,,,,,,,
790.81,0.00011,-89.0,,,,,,,
790.82,9e-05,-91.0,,,,,,,
790.84,6e-05,-93.05,,,,,,,
790.86,4e-05,-94.92,,,,,,,
790.87,1e-05,-96.63,,,,,,,
790.89,-2e-05,-98.18,,,,,,,
790.91,-4e-05,-99.72,,,,,,,
790.93,-7e-05,-101.07,,,,,,,
790.95,-9e-05,-102.32,,,,,,,
790.97,-0.00012,-103.46,,,,,,,
791.0,-0.00014,-104.73,,,,,,,
791.03,-0.00017,-105.87,,,,,,,
791.05,-0.00019,-106.86,,,,,,,
791.08,-0.00022,-107.94,,,,,,,
791.1,-0.00025,-108.82,,,,,,,
791.13,-0.00027,-109.74,,,,,,,
791.16,-0.0003,-110.77,,,,,,,
791.18,-0.00032,-111.7,,,,,,,
791.21,-0.00035,-112.58,,,,,,,
791.24,-0.00037,-113.68,,,,,,,
791.26,-0.0004,-114.72,,,,,,,
791.29,-0.00042,-115.86,,,,,,,
791.32,-0.00045,-117.05,,,,,,,
791.35,-0.00047,-118.41,,,,,,,
791.38,-0.0005,-119.69,,,,,,,
791.4,-0.00053,-120.95,,,,,,,
791.43,-0.00055,-122.3,,,,,,,
791.46,-0.00058,-123.71,,,,,,,
791.48,-0.0006,-125.04,,,,,,,
791.51,-0.00063,-126.51,,,,,,,
791.54,-0.00065,-128.0,,,,,,,
791.56,-0.00068,-129.34,,,,,,,
791.59,-0.0007,-130.78,,,,,,,
791.62,-0.00073,-132.16,,,,,,,
791.64,-0.00075,-133.38,,,,,,,
791.66,-0.00078,-134.52,,,,,,,
791.68,-0.00081,-135.63,,,,,,,
791.71,-0.00083,-136.8,,,,,,,
791.73,-0.00086,-137.86,,,,,,,
791.75,-0.00088,-138.9,,,,,,,
791.78,-0.00091,-139.77,,,,,,,
791.8,-0.00093,-140.66,,,,,,,
791.83,-0.00096,-141.72,,,,,,,
791.85,-0.00098,-142.71,,,,,,,
791.88,-0.00101,-143.57,,,,,,,
791.91,-0.00103,-144.57,,,,,,,
791.94,-0.00106,-145.61,,,,,,,
791.96,-0.00109,-146.56,,,,,,,
791.98,-0.00111,-147.46,,,,,,,
792.01,-0.00114,-148.25,,,,,,,
792.03,-0.00116,-149.25,,,,,,,
792.06,-0.00119,-150.09,,,,,,,
792.09,-0.00121,-150.96,,,,,,,
792.11,-0.00124,-151.76,,,,,,,
792.14,-0.00127,-152.64,,,,,,,
792.16,-0.00129,-153.43,,,,,,,
792.18,-0.00132,-154.12,,,,,,,
792.21,-0.00134,-154.88,,,,,,,
792.23,-0.00137,-155.55,,,,,,,
792.26,-0.00139,-156.21,,,,,,,
792.28,-0.00142,-156.82,,,,,,,
792.31,-0.00144,-157.51,,,,,,,
792.34,-0.00147,-158.18,,,,,,,
792.37,-0.0015,-158.92,,,,,,,
792.39,-0.00152,-159.65,,,,,,,
792.42,-0.00155,-160.4,,,,,,,
792.44,-0.00157,-161.03,,,,,,,
792.46,-0.0016,-161.68,,,,,,,
792.49,-0.00162,-162.28,,,,,,,
792.51,-0.00165,-162.81,,,,,,,
792.53,-0.00167,-163.26,,,,,,,
792.55,-0.0017,-163.65,,,,,,,
792.58,-0.00173,-164.0,,,,,,,
792.6,-0.00175,-164.25,,,,,,,
792.63,-0.00178,-164.4,,,,,,,
792.65,-0.0018,-164.57,,,,,,,
792.68,-0.00183,-164.69,,,,,,,
792.71,-0.00185,-164.83,,,,,,,
792.74,-0.00188,-164.99,,,,,,,
792.76,-0.0019,-165.15,,,,,,,
792.79,-0.00193,-165.32,,,,,,,
792.81,-0.00195,-165.34,,,,,,,
792.84,-0.00198,-164.77,,,,,,,
792.89,-0.00201,-160.82,,,,,,,
792.96,-0.00198,-149.18,,,,,,,
792.98,-0.00195,-143.92,,,,,,,
793.0,-0.00193,-138.93,,,,,,,
793.02,-0.0019,-133.83,,,,,,,
793.04,-0.00188,-129.39,,,,,,,
793.06,-0.00185,-124.22,,,,,,,
793.08,-0.00183,-119.57,,,,,,,
793.1,-0.0018,-115.69,,,,,,,
793.12,-0.00177,-111.7,,,,,,,
793.14,-0.00175,-107.55,,,,,,,
793.16,-0.00172,-103.41,,,,,,,
793.18,-0.0017,-99.56,,,,,,,
793.21,-0.00167,-95.43,,,,,,,
793.23,-0.00165,-91.42,,,,,,,
793.25,-0.00162,-87.9,,,,,,,
793.28,-0.0016,-83.98,,,,,,,
793.31,-0.00157,-80.01,,,,,,,
793.33,-0.00155,-76.44,,,,,,,
793.36,-0.00152,-72.69,,,,,,,
793.39,-0.00149,-68.99,,,,,,,
793.41,-0.00147,-65.31,,,,,,,
793.44,-0.00144,-61.45,,,,,,,
793.47,-0.00142,-57.75,,,,,,,
793.5,-0.00139,-53.9,,,,,,,
793.53,-0.00137,-50.29,,,,,,,
793.55,-0.00134,-46.7,,,,,,,
793.58,-0.00132,-43.24,,,,,,,
793.61,-0.00129,-39.75,,,,,,,
793.63,-0.00127,-36.54,,,,,,,
793.66,-0.00124,-33.03,,,,,,,
793.69,-0.00122,-29.62,,,,,,,
793.72,-0.00119,-26.1,,,,,,,
793.74,-0.00116,-22.6,,,,,,,
793.77,-0.00114,-19.46,,,,,,,
793.79,-0.00111,-16.31,,,,,,,
793.82,-0.00109,-12.86,,,,,,,
793.85,-0.00106,-9.63,,,,,,,
793.88,-0.00104,-6.46,,,,,,,
793.9,-0.00101,-3.51,,,,,,,
793.93,-0.00099,-0.29,,,,,,,
793.96,-0.00096,2.94,,,,,,,
793.98,-0.00093,5.94,,,,,,,
794.01,-0.00091,9.12,,,,,,,
794.04,-0.00088,11.93,,,,,,,
794.06,-0.00086,14.89,,,,,,,
794.09,-0.00083,17.81,,,,,,,
794.12,-0.00081,20.82,,,,,,,
794.15,-0.00078,23.7,,,,,,,
794.17,-0.00076,26.08,,,,,,,
794.22,-0.00073,28.3,,,,,,,
794.27,-0.00071,30.5,,,,,,,
794.33,-0.00068,33.15,,,,,,,
794.37,-0.00065,35.5,,,,,,,
794.4,-0.00063,38.57,,,,,,,
794.42,-0.0006,41.47,,,,,,,
794.44,-0.00058,44.82,,,,,,,
794.46,-0.00055,47.56,,,,,,,
794.47,-0.00053,50.25,,,,,,,
794.49,-0.0005,52.73,,,,,,,
794.51,-0.00047,55.12,,,,,,,
794.53,-0.00045,57.37,,,,,,,
794.55,-0.00042,59.43,,,,,,,
794.57,-0.0004,61.39,,,,,,,
794.6,-0.00037,63.03,,,,,,,
794.63,-0.00035,64.79,,,,,,,
794.66,-0.00032,66.21,,,,,,,
794.69,-0.0003,67.67,,,,,,,
794.72,-0.00027,69.26,,,,,,,
794.75,-0.00024,70.86,,,,,,,
1587.67,-0.00022,70.62,,,,,,,
1587.71,-0.00019,73.02,,,,,,,
1587.75,-0.00017,75.63,,,,,,,
1587.78,-0.00014,78.36,,,,,,,
1587.8,-0.00012,80.77,,,,,,,
1587.83,-9e-05,83.19,,,,,,,
1587.85,-6e-05,85.74,,,,,,,
1587.87,-4e-05,88.29,,,,,,,
1587.89,-1e-05,90.68,,,,,,,
1587.91,1e-05,93.06,,,,,,,
1587.92,4e-05,95.48,,,,,,,
1587.93,6e-05,97.64,,,,,,,
1587.95,9e-05,99.84,,,,,,,
1587.96,0.00011,102.06,,,,,,,
1587.98,0.00014,104.26,,,,,,,
1587.99,0.00017,106.19,,,,,,,
1588.01,0.00019,108.2,,,,,,,
1588.02,0.00022,110.13,,,,,,,
1588.04,0.00024,112.02,,,,,,,
1588.06,0.00027,113.76,,,,,,,
1588.08,0.00029,115.47,,,,,,,
1588.1,0.00032,117.06,,,,,,,
1588.12,0.00035,118.41,,,,,,,
1588.14,0.00037,119.7,,,,,,,
1588.16,0.0004,121.01,,,,,,,
1588.18,0.00042,122.21,,,,,,,
1588.21,0.00045,123.48,,,,,,,
1588.23,0.00047,124.72,,,,,,,
1588.26,0.0005,125.85,,,,,,,
1588.29,0.00052,126.98,,,,,,,
1588.31,0.00055,128.25,,,,,,,
1588.33,0.00057,129.16,,,,,,,
1588.36,0.0006,130.14,,,,,,,
1588.38,0.00063,131.25,,,,,,,
1588.4,0.00065,132.26,,,,,,,
1588.43,0.00068,133.27,,,,,,,
1588.46,0.0007,134.33,,,,,,,
1588.49,0.00073,135.44,,,,,,,
1588.52,0.00075,136.64,,,,,,,
1588.55,0.00078,137.89,,,,,,,
1588.58,0.00081,139.07,,,,,,,
1588.6,0.00083,140.13,,,,,,,
1588.62,0.00086,141.28,,,,,,,
1588.64,0.00088,142.37,,,,,,,
1588.67,0.00091,143.64,,,,,,,
1588.69,0.00093,144.68,,,,,,,
1588.71,0.00096,145.69,,,,,,,
1588.73,0.00098,146.61,,,,,,,
1588.76,0.00101,147.45,,,,,,,
1588.78,0.00104,148.31,,,,,,,
1588.81,0.00106,149.01,,,,,,,
1588.83,0.00109,149.71,,,,,,,
1588.86,0.00111,150.4,,,,,,,
1588.89,0.00114,151.15,,,,,,,
1588.92,0.00116,151.94,,,,,,,
1588.94,0.00119,152.63,,,,,,,
1588.97,0.00121,153.44,,,,,,,
1588.99,0.00124,154.38,,,,,,,
1589.02,0.00126,155.23,,,,,,,
1589.04,0.00129,156.0,,,,,,,
1589.07,0.00132,156.67,,,,,,,
1589.09,0.00134,157.27,,,,,,,
1589.11,0.00137,157.8,,,,,,,
1589.13,0.00139,158.29,,,,,,,
1589.15,0.00142,158.59,,,,,,,
1589.18,0.00144,158.92,,,,,,,
1589.2,0.00147,159.11,,,,,,,
1589.24,0.00149,159.35,,,,,,,
1589.27,0.00152,159.68,,,,,,,
1589.29,0.00155,160.17,,,,,,,
1589.33,0.00157,160.77,,,,,,,
1589.35,0.0016,161.3,,,,,,,
1589.38,0.00162,161.85,,,,,,,
1589.4,0.00165,162.48,,,,,,,
1589.43,0.00167,163.19,,,,,,,
1589.45,0.0017,163.87,,,,,,,
1589.47,0.00172,164.42,,,,,,,
1589.5,0.00175,164.92,,,,,,,
1589.52,0.00177,165.41,,,,,,,
1589.54,0.0018,165.84,,,,,,,
1589.56,0.00183,166.19,,,,,,,
1589.58,0.00185,166.47,,,,,,,
1589.61,0.00188,166.69,,,,,,,
1589.63,0.0019,166.8,,,,,,,
1589.65,0.00193,166.81,,,,,,,
1589.67,0.00195,166.79,,,,,,,
1589.7,0.00198,166.4,,,,,,,
1589.73,0.002,165.04,,,,,,,
1589.78,0.00203,158.7,,,,,,,
1589.82,0.00202,150.97,,,,,,,
1589.83,0.002,147.57,,,,,,,
1589.86,0.00198,141.26,,,,,,,
1589.88,0.00195,135.68,,,,,,,
1589.9,0.00193,130.54,,,,,,,
1589.92,0.0019,125.59,,,,,,,
1589.94,0.00188,120.69,,,,,,,
1589.96,0.00185,116.09,,,,,,,
1589.98,0.00182,111.51,,,,,,,
1590.0,0.0018,107.12,,,,,,,
1590.02,0.00177,102.99,,,,,,,
1590.04,0.00175,98.75,,,,,,,
1590.06,0.00172,94.42,,,,,,,
1590.08,0.00169,90.77,,,,,,,
1590.1,0.00167,86.97,,,,,,,
1590.12,0.00164,83.4,,,,,,,
1590.15,0.00162,79.96,,,,,,,
1590.17,0.00159,76.45,,,,,,,
1590.2,0.00157,72.56,,,,,,,
1590.22,0.00154,69.19,,,,,,,
1590.25,0.00152,65.92,,,,,,,
1590.27,0.00149,62.74,,,,,,,
1590.3,0.00146,59.85,,,,,,,
1590.32,0.00144,56.71,,,,,,,
1590.35,0.00141,53.71,,,,,,,
1590.37,0.00139,50.63,,,,,,,
1590.41,0.00136,47.3,,,,,,,
1590.43,0.00134,44.06,,,,,,,
1590.46,0.00131,40.88,,,,,,,
1590.49,0.00129,38.11,,,,,,,
1590.51,0.00126,35.42,,,,,,,
1590.54,0.00124,32.44,,,,,,,
1590.56,0.00121,29.64,,,,,,,
1590.59,0.00119,26.81,,,,,,,
1590.62,0.00116,23.79,,,,,,,
1590.65,0.00114,20.76,,,,,,,
1590.67,0.00111,18.19,,,,,,,
1590.7,0.00109,15.57,,,,,,,
1590.72,0.00106,13.03,,,,,,,
1590.75,0.00103,10.37,,,,,,,
1590.78,0.00101,7.53,,,,,,,
1590.8,0.00098,4.7,,,,,,,
1590.83,0.00096,2.31,,,,,,,
1590.85,0.00093,-0.15,,,,,,,
1590.88,0.00091,-2.71,,,,,,,
1590.91,0.00088,-5.24,,,,,,,
1590.94,0.00086,-8.26,,,,,,,
1590.97,0.00083,-10.73,,,,,,,
1590.99,0.00081,-12.82,,,,,,,
1591.02,0.00078,-14.8,,,,,,,
1591.1,0.00076,-15.26,,,,,,,
1591.2,0.00073,-18.3,,,,,,,
1591.24,0.0007,-21.38,,,,,,,
1591.28,0.00068,-24.28,,,,,,,
1591.31,0.00065,-27.4,,,,,,,
1591.35,0.00063,-30.46,,,,,,,
1591.38,0.0006,-33.14,,,,,,,
1591.41,0.00058,-36.29,,,,,,,
1591.43,0.00055,-39.46,,,,,,,
1591.46,0.00053,-42.67,,,,,,,
1591.47,0.0005,-46.21,,,,,,,
1591.49,0.00047,-49.39,,,,,,,
1591.5,0.00045,-52.64,,,,,,,
1591.52,0.00042,-55.62,,,,,,,
1591.53,0.0004,-58.54,,,,,,,
1591.55,0.00037,-61.75,,,,,,,
1591.56,0.00034,-64.78,,,,,,,
1591.58,0.00032,-67.68,,,,,,,
1591.59,0.00029,-70.21,,,,,,,
1591.6,0.00027,-72.9,,,,,,,
1591.62,0.00024,-75.19,,,,,,,
1591.63,0.00021,-77.49,,,,,,,
1591.64,0.00019,-79.58,,,,,,,
1591.66,0.00016,-81.92,,,,,,,
1591.67,0.00014,-83.97,,,,,,,
1591.68,0.00011,-86.12,,,,,,,
1591.7,8e-05,-88.08,,,,,,,
1591.72,6e-05,-90.02,,,,,,,
1591.73,3e-05,-91.71,,,,,,,
1591.75,1e-05,-93.29,,,,,,,
1591.77,-2e-05,-94.8,,,,,,,
1591.79,-5e-05,-96.34,,,,,,,
1591.81,-7e-05,-97.62,,,,,,,
1591.83,-0.0001,-98.74,,,,,,,
1591.86,-0.00012,-99.78,,,,,,,
1591.88,-0.00015,-100.88,,,,,,,
1591.91,-0.00017,-101.86,,,,,,,
1591.93,-0.0002,-102.98,,,,,,,
1591.97,-0.00022,-104.25,,,,,,,
1591.99,-0.00025,-105.31,,,,,,,
1592.02,-0.00027,-106.27,,,,,,,
1592.05,-0.0003,-107.39,,,,,,,
1592.07,-0.00032,-108.62,,,,,,,
1592.1,-0.00035,-109.77,,,,,,,
1592.13,-0.00038,-110.92,,,,,,,
1592.16,-0.0004,-112.21,,,,,,,
1592.18,-0.00043,-113.62,,,,,,,
1592.21,-0.00045,-114.98,,,,,,,
1592.24,-0.00048,-116.53,,,,,,,
1592.27,-0.0005,-118.19,,,,,,,
1592.29,-0.00053,-119.63,,,,,,,
1592.32,-0.00055,-121.02,,,,,,,
1592.34,-0.00058,-122.37,,,,,,,
1592.36,-0.0006,-123.75,,,,,,,
1592.39,-0.00063,-124.95,,,,,,,
1592.41,-0.00066,-126.1,,,,,,,
1592.43,-0.00068,-127.39,,,,,,,
1592.46,-0.00071,-128.51,,,,,,,
1592.48,-0.00073,-129.76,,,,,,,
1592.51,-0.00076,-130.82,,,,,,,
1592.53,-0.00078,-131.98,,,,,,,
1592.56,-0.00081,-133.03,,,,,,,
1592.59,-0.00083,-134.17,,,,,,,
1592.61,-0.00086,-135.28,,,,,,,
1592.64,-0.00088,-136.47,,,,,,,
1592.67,-0.00091,-137.78,,,,,,,
1592.7,-0.00093,-138.94,,,,,,,
1592.73,-0.00096,-140.09,,,,,,,
1592.75,-0.00099,-141.37,,,,,,,
1592.78,-0.00101,-142.5,,,,,,,
1592.8,-0.00104,-143.8,,,,,,,
1592.83,-0.00106,-145.03,,,,,,,
1592.85,-0.00109,-146.12,,,,,,,
1592.87,-0.00111,-147.28,,,,,,,
1592.9,-0.00114,-148.4,,,,,,,
1592.92,-0.00116,-149.45,,,,,,,
1592.95,-0.00119,-150.41,,,,,,,
1592.97,-0.00121,-151.35,,,,,,,
1593.0,-0.00124,-152.2,,,,,,,
1593.02,-0.00127,-153.17,,,,,,,
1593.04,-0.00129,-154.02,,,,,,,
1593.07,-0.00132,-154.86,,,,,,,
1593.1,-0.00134,-155.71,,,,,,,
1593.12,-0.00137,-156.44,,,,,,,
1593.14,-0.00139,-157.14,,,,,,,
1593.17,-0.00142,-157.85,,,,,,,
1593.2,-0.00145,-158.58,,,,,,,
1593.23,-0.00147,-159.24,,,,,,,
1593.25,-0.0015,-159.95,,,,,,,
1593.28,-0.00152,-160.69,,,,,,,
1593.3,-0.00155,-161.43,,,,,,,
1593.33,-0.00157,-162.12,,,,,,,
1593.35,-0.0016,-162.88,,,,,,,
1593.38,-0.00162,-163.61,,,,,,,
1593.41,-0.00165,-164.26,,,,,,,
1593.43,-0.00167,-164.99,,,,,,,
1593.45,-0.0017,-165.57,,,,,,,
1593.48,-0.00172,-166.05,,,,,,,
1593.5,-0.00175,-166.64,,,,,,,
1593.52,-0.00178,-167.06,,,,,,,
1593.54,-0.0018,-167.41,,,,,,,
1593.56,-0.00183,-167.81,,,,,,,
1593.58,-0.00185,-168.06,,,,,,,
1593.6,-0.00188,-168.22,,,,,,,
1593.63,-0.0019,-168.33,,,,,,,
1593.65,-0.00193,-168.31,,,,,,,
1593.68,-0.00195,-168.13,,,,,,,
1593.7,-0.00198,-167.53,,,,,,,
1593.74,-0.002,-165.95,,,,,,,
1593.85,-0.00198,-146.17,,,,,,,
1593.87,-0.00195,-140.48,,,,,,,
1593.89,-0.00193,-135.16,,,,,,,
1593.91,-0.0019,-130.39,,,,,,,
1593.93,-0.00188,-125.88,,,,,,,
1593.95,-0.00185,-121.62,,,,,,,
1593.96,-0.00182,-117.98,,,,,,,
1593.98,-0.0018,-114.4,,,,,,,
1594.0,-0.00177,-110.6,,,,,,,
1594.01,-0.00175,-107.06,,,,,,,
1594.03,-0.00172,-103.25,,,,,,,
1594.06,-0.0017,-99.23,,,,,,,
1594.08,-0.00167,-95.5,,,,,,,
1594.1,-0.00165,-91.8,,,,,,,
1594.13,-0.00162,-88.37,,,,,,,
1594.16,-0.00159,-84.3,,,,,,,
1594.18,-0.00157,-80.6,,,,,,,
1594.21,-0.00154,-76.97,,,,,,,
1594.24,-0.00152,-73.54,,,,,,,
1594.27,-0.00149,-69.86,,,,,,,
1594.3,-0.00147,-66.14,,,,,,,
1594.33,-0.00144,-62.62,,,,,,,
1594.35,-0.00142,-59.01,,,,,,,
1594.38,-0.00139,-55.75,,,,,,,
1594.41,-0.00137,-52.41,,,,,,,
1594.43,-0.00134,-49.3,,,,,,,
1594.45,-0.00132,-46.36,,,,,,,
1594.48,-0.00129,-42.71,,,,,,,
1594.51,-0.00126,-39.45,,,,,,,
1594.54,-0.00124,-36.28,,,,,,,
1594.57,-0.00121,-32.56,,,,,,,
1594.6,-0.00119,-29.1,,,,,,,
1594.62,-0.00116,-26.14,,,,,,,
1594.65,-0.00114,-23.07,,,,,,,
1594.67,-0.00111,-19.83,,,,,,,
1594.7,-0.00109,-16.59,,,,,,,
1594.73,-0.00106,-13.05,,,,,,,
1594.76,-0.00104,-9.48,,,,,,,
1594.79,-0.00101,-6.23,,,,,,,
1594.82,-0.00098,-3.08,,,,,,,
1594.84,-0.00096,0.05,,,,,,,
1594.87,-0.00093,3.14,,,,,,,
1594.9,-0.00091,6.28,,,,,,,
1594.92,-0.00088,9.64,,,,,,,
1594.95,-0.00086,12.49,,,,,,,
1594.97,-0.00083,15.19,,,,,,,
1595.0,-0.00081,18.22,,,,,,,
1595.03,-0.00078,21.33,,,,,,,
1595.05,-0.00076,24.07,,,,,,,
1595.08,-0.00073,26.2,,,,,,,
1595.12,-0.00071,28.32,,,,,,,
1595.18,-0.00068,30.73,,,,,,,
1595.24,-0.00065,33.35,,,,,,,
1595.28,-0.00063,36.06,,,,,,,
1595.31,-0.0006,38.96,,,,,,,
1595.33,-0.00058,41.95,,,,,,,
1595.34,-0.00055,44.8,,,,,,,
1595.36,-0.00053,47.54,,,,,,,
1595.38,-0.0005,49.99,,,,,,,
1595.39,-0.00047,52.49,,,,,,,
1595.41,-0.00045,54.92,,,,,,,
1595.43,-0.00042,57.27,,,,,,,
1595.46,-0.0004,59.54,,,,,,,
1595.49,-0.00037,61.65,,,,,,,
1595.51,-0.00035,63.18,,,,,,,
1595.54,-0.00032,64.9,,,,,,,
1595.57,-0.0003,66.56,,,,,,,
1595.6,-0.00027,68.25,,,,,,,
1595.64,-0.00025,69.98,,,,,,,
3990.29,-0.00023,73.45,,,,,,,
3990.33,-0.0002,75.35,,,,,,,
3990.36,-0.00018,77.53,,,,,,,
3990.39,-0.00015,79.63,,,,,,,
3990.42,-0.00013,81.83,,,,,,,
3990.45,-0.0001,84.14,,,,,,,
3990.47,-8e-05,86.72,,,,,,,
3990.49,-5e-05,89.26,,,,,,,
3990.51,-2e-05,91.88,,,,,,,
3990.53,0.0,94.32,,,,,,,
3990.54,3e-05,96.89,,,,,,,
3990.56,5e-05,99.33,,,,,,,
3990.57,8e-05,101.5,,,,,,,
3990.59,0.0001,103.74,,,,,,,
3990.6,0.00013,105.92,,,,,,,
3990.62,0.00016,108.14,,,,,,,
3990.64,0.00018,110.35,,,,,,,
3990.66,0.00021,112.3,,,,,,,
3990.67,0.00023,114.09,,,,,,,
3990.69,0.00026,115.8,,,,,,,
3990.71,0.00029,117.45,,,,,,,
3990.73,0.00031,118.96,,,,,,,
3990.75,0.00034,120.51,,,,,,,
3990.77,0.00036,121.95,,,,,,,
3990.8,0.00039,123.27,,,,,,,
3990.82,0.00041,124.4,,,,,,,
3990.84,0.00044,125.78,,,,,,,
3990.87,0.00047,126.96,,,,,,,
3990.89,0.00049,128.02,,,,,,,
3990.92,0.00052,129.23,,,,,,,
3990.94,0.00054,130.48,,,,,,,
3990.97,0.00057,131.71,,,,,,,
3991.0,0.00059,132.84,,,,,,,
3991.02,0.00062,133.92,,,,,,,
3991.05,0.00065,135.03,,,,,,,
3991.08,0.00067,136.35,,,,,,,
3991.11,0.0007,137.6,,,,,,,
3991.13,0.00072,138.89,,,,,,,
3991.16,0.00075,140.2,,,,,,,
3991.18,0.00077,141.55,,,,,,,
3991.21,0.0008,142.7,,,,,,,
3991.23,0.00082,143.68,,,,,,,
3991.25,0.00085,144.84,,,,,,,
3991.28,0.00087,146.0,,,,,,,
3991.3,0.0009,147.04,,,,,,,
3991.33,0.00093,148.02,,,,,,,
3991.36,0.00095,149.0,,,,,,,
3991.38,0.00098,149.93,,,,,,,
3991.4,0.001,150.89,,,,,,,
3991.43,0.00103,151.88,,,,,,,
3991.45,0.00105,152.77,,,,,,,
3991.48,0.00108,153.7,,,,,,,
3991.5,0.0011,154.5,,,,,,,
3991.53,0.00113,155.26,,,,,,,
3991.55,0.00116,156.02,,,,,,,
3991.57,0.00118,156.64,,,,,,,
3991.59,0.00121,157.17,,,,,,,
3991.62,0.00123,157.73,,,,,,,
3991.64,0.00126,158.26,,,,,,,
3991.67,0.00128,158.7,,,,,,,
3991.7,0.00131,159.16,,,,,,,
3991.72,0.00133,159.58,,,,,,,
3991.74,0.00136,160.0,,,,,,,
3991.77,0.00138,160.34,,,,,,,
3991.79,0.00141,160.75,,,,,,,
3991.82,0.00143,161.07,,,,,,,
3991.85,0.00146,161.47,,,,,,,
3991.87,0.00149,161.88,,,,,,,
3991.9,0.00151,162.3,,,,,,,
3991.92,0.00154,162.65,,,,,,,
3991.94,0.00156,162.97,,,,,,,
3991.97,0.00159,163.32,,,,,,,
3992.0,0.00161,163.74,,,,,,,
3992.02,0.00164,163.99,,,,,,,
3992.04,0.00166,164.3,,,,,,,
3992.07,0.00169,164.54,,,,,,,
3992.09,0.00171,164.71,,,,,,,
3992.11,0.00174,164.94,,,,,,,
3992.14,0.00177,165.11,,,,,,,
3992.16,0.00179,165.18,,,,,,,
3992.19,0.00182,165.2,,,,,,,
3992.21,0.00184,165.22,,,,,,,
3992.23,0.00187,165.12,,,,,,,
3992.26,0.00189,165.01,,,,,,,
3992.28,0.00192,164.83,,,,,,,
3992.31,0.00194,164.67,,,,,,,
3992.34,0.00197,164.16,,,,,,,
3992.37,0.002,162.97,,,,,,,
3992.5,0.00197,141.93,,,,,,,
3992.52,0.00194,137.03,,,,,,,
3992.54,0.00192,132.49,,,,,,,
3992.56,0.00189,127.72,,,,,,,
3992.58,0.00187,123.09,,,,,,,
3992.59,0.00184,118.7,,,,,,,
3992.61,0.00182,114.37,,,,,,,
3992.63,0.00179,110.4,,,,,,,
3992.65,0.00176,106.79,,,,,,,
3992.67,0.00174,103.22,,,,,,,
3992.69,0.00171,99.75,,,,,,,
3992.71,0.00169,96.39,,,,,,,
3992.73,0.00166,93.02,,,,,,,
3992.75,0.00164,89.81,,,,,,,
3992.77,0.00161,86.8,,,,,,,
3992.8,0.00159,83.43,,,,,,,
3992.83,0.00156,79.55,,,,,,,
3992.86,0.00153,76.08,,,,,,,
3992.89,0.00151,72.63,,,,,,,
3992.92,0.00148,69.02,,,,,,,
3992.95,0.00146,65.25,,,,,,,
3992.98,0.00143,61.58,,,,,,,
3993.01,0.00141,58.41,,,,,,,
3993.03,0.00138,55.19,,,,,,,
3993.06,0.00136,51.85,,,,,,,
3993.08,0.00133,48.78,,,,,,,
3993.11,0.00131,45.43,,,,,,,
3993.14,0.00128,42.19,,,,,,,
3993.17,0.00126,38.75,,,,,,,
3993.2,0.00123,35.49,,,,,,,
3993.22,0.00121,32.4,,,,,,,
3993.25,0.00118,28.78,,,,,,,
3993.28,0.00115,25.43,,,,,,,
3993.31,0.00113,22.13,,,,,,,
3993.33,0.0011,18.98,,,,,,,
3993.36,0.00108,15.87,,,,,,,
3993.39,0.00105,12.98,,,,,,,
3993.41,0.00103,10.18,,,,,,,
3993.44,0.001,7.04,,,,,,,
3993.47,0.00097,3.84,,,,,,,
3993.49,0.00095,0.94,,,,,,,
3993.52,0.00092,-1.79,,,,,,,
3993.55,0.0009,-4.94,,,,,,,
3993.58,0.00087,-7.97,,,,,,,
3993.61,0.00085,-10.83,,,,,,,
3993.63,0.00082,-13.58,,,,,,,
3993.66,0.0008,-15.87,,,,,,,
3993.7,0.00077,-17.1,,,,,,,
3993.83,0.00075,-19.01,,,,,,,
3993.86,0.00072,-21.56,,,,,,,
3993.9,0.0007,-23.93,,,,,,,
3993.93,0.00067,-26.74,,,,,,,
3993.96,0.00065,-29.21,,,,,,,
3994.0,0.00062,-31.68,,,,,,,
3994.03,0.0006,-34.17,,,,,,,
3994.06,0.00057,-37.28,,,,,,,
3994.08,0.00055,-40.06,,,,,,,
3994.09,0.00052,-42.93,,,,,,,
3994.11,0.00049,-46.37,,,,,,,
3994.13,0.00047,-49.56,,,,,,,
3994.14,0.00044,-52.72,,,,,,,
3994.16,0.00042,-55.83,,,,,,,
3994.17,0.00039,-58.9,,,,,,,
3994.19,0.00036,-61.87,,,,,,,
3994.2,0.00034,-64.78,,,,,,,
3994.22,0.00031,-67.76,,,,,,,
3994.23,0.00029,-70.52,,,,,,,
3994.25,0.00026,-73.22,,,,,,,
3994.26,0.00024,-75.83,,,,,,,
3994.28,0.00021,-78.11,,,,,,,
3994.29,0.00019,-80.47,,,,,,,
3994.31,0.00016,-82.9,,,,,,,
3994.32,0.00013,-85.0,,,,,,,
3994.34,0.00011,-87.09,,,,,,,
3994.35,8e-05,-89.11,,,,,,,
3994.37,6e-05,-90.93,,,,,,,
3994.38,3e-05,-92.62,,,,,,,
3994.4,1e-05,-94.28,,,,,,,
3994.42,-2e-05,-95.78,,,,,,,
3994.44,-5e-05,-97.28,,,,,,,
3994.46,-7e-05,-98.74,,,,,,,
3994.49,-0.0001,-99.97,,,,,,,
3994.51,-0.00012,-101.25,,,,,,,
3994.54,-0.00015,-102.42,,,,,,,
3994.57,-0.00017,-103.76,,,,,,,
3994.6,-0.0002,-105.12,,,,,,,
3994.62,-0.00022,-106.54,,,,,,,
3994.65,-0.00025,-107.84,,,,,,,
3994.68,-0.00028,-109.1,,,,,,,
3994.71,-0.0003,-110.53,,,,,,,
3994.73,-0.00033,-111.82,,,,,,,
3994.75,-0.00035,-113.1,,,,,,,
3994.78,-0.00038,-114.41,,,,,,,
3994.8,-0.0004,-115.82,,,,,,,
3994.83,-0.00043,-117.06,,,,,,,
3994.85,-0.00045,-118.29,,,,,,,
3994.88,-0.00048,-119.48,,,,,,,
3994.9,-0.00051,-120.56,,,,,,,
3994.93,-0.00053,-121.63,,,,,,,
3994.95,-0.00056,-122.6,,,,,,,
3994.98,-0.00058,-123.63,,,,,,,
3995.0,-0.00061,-124.57,,,,,,,
3995.03,-0.00063,-125.57,,,,,,,
3995.06,-0.00066,-126.92,,,,,,,
3995.09,-0.00069,-128.14,,,,,,,
3995.12,-0.00071,-129.3,,,,,,,
3995.15,-0.00074,-130.86,,,,,,,
3995.18,-0.00076,-132.29,,,,,,,
3995.21,-0.00079,-133.8,,,,,,,
3995.24,-0.00081,-135.36,,,,,,,
3995.26,-0.00084,-136.65,,,,,,,
3995.28,-0.00086,-138.14,,,,,,,
3995.31,-0.00089,-139.64,,,,,,,
3995.33,-0.00092,-141.16,,,,,,,
3995.35,-0.00094,-142.5,,,,,,,
3995.38,-0.00097,-143.72,,,,,,,
3995.4,-0.00099,-145.06,,,,,,,
3995.42,-0.00102,-146.28,,,,,,,
3995.45,-0.00104,-147.47,,,,,,,
3995.47,-0.00107,-148.52,,,,,,,
3995.5,-0.00109,-149.56,,,,,,,
3995.52,-0.00112,-150.36,,,,,,,
3995.54,-0.00115,-151.15,,,,,,,
3995.56,-0.00117,-151.94,,,,,,,
3995.58,-0.0012,-152.71,,,,,,,
3995.61,-0.00122,-153.35,,,,,,,
3995.63,-0.00125,-153.9,,,,,,,
3995.67,-0.00127,-154.61,,,,,,,
3995.69,-0.0013,-155.21,,,,,,,
3995.72,-0.00132,-155.72,,,,,,,
3995.75,-0.00135,-156.29,,,,,,,
3995.78,-0.00138,-156.98,,,,,,,
3995.8,-0.0014,-157.66,,,,,,,
3995.83,-0.00143,-158.3,,,,,,,
3995.86,-0.00145,-159.07,,,,,,,
3995.88,-0.00148,-159.84,,,,,,,
3995.9,-0.0015,-160.61,,,,,,,
3995.93,-0.00153,-161.31,,,,,,,
3995.95,-0.00156,-162.05,,,,,,,
3995.97,-0.00158,-162.65,,,,,,,
3996.0,-0.00161,-163.38,,,,,,,
3996.03,-0.00163,-164.02,,,,,,,
3996.05,-0.00166,-164.56,,,,,,,
3996.08,-0.00168,-165.07,,,,,,,
3996.1,-0.00171,-165.6,,,,,,,
3996.12,-0.00173,-166.06,,,,,,,
3996.15,-0.00176,-166.55,,,,,,,
3996.17,-0.00178,-166.95,,,,,,,
3996.2,-0.00181,-167.23,,,,,,,
3996.22,-0.00184,-167.53,,,,,,,
3996.24,-0.00186,-167.7,,,,,,,
3996.26,-0.00189,-167.91,,,,,,,
3996.28,-0.00191,-168.06,,,,,,,
3996.31,-0.00194,-168.03,,,,,,,
3996.33,-0.00196,-167.82,,,,,,,
3996.36,-0.00199,-166.99,,,,,,,
3996.5,-0.00196,-145.14,,,,,,,
3996.52,-0.00194,-139.51,,,,,,,
3996.54,-0.00191,-134.21,,,,,,,
3996.56,-0.00189,-129.44,,,,,,,
3996.58,-0.00186,-124.65,,,,,,,
3996.6,-0.00184,-120.07,,,,,,,
3996.62,-0.00181,-115.91,,,,,,,
3996.64,-0.00178,-112.03,,,,,,,
3996.66,-0.00176,-108.01,,,,,,,
3996.68,-0.00173,-104.36,,,,,,,
3996.7,-0.00171,-100.61,,,,,,,
3996.72,-0.00168,-96.64,,,,,,,
3996.74,-0.00166,-92.5,,,,,,,
3996.77,-0.00163,-88.78,,,,,,,
3996.79,-0.00161,-84.95,,,,,,,
3996.82,-0.00158,-80.62,,,,,,,
3996.85,-0.00155,-76.72,,,,,,,
3996.88,-0.00153,-72.42,,,,,,,
3996.91,-0.0015,-68.71,,,,,,,
3996.94,-0.00148,-64.73,,,,,,,
3996.96,-0.00145,-61.14,,,,,,,
3996.99,-0.00143,-57.47,,,,,,,
3997.02,-0.0014,-54.19,,,,,,,
3997.04,-0.00138,-51.31,,,,,,,
3997.06,-0.00135,-48.63,,,,,,,
3997.08,-0.00133,-45.81,,,,,,,
3997.1,-0.0013,-42.97,,,,,,,
3997.13,-0.00128,-40.32,,,,,,,
3997.15,-0.00125,-37.5,,,,,,,
3997.18,-0.00123,-34.66,,,,,,,
3997.2,-0.0012,-32.09,,,,,,,
3997.23,-0.00117,-29.53,,,,,,,
3997.25,-0.00115,-27.11,,,,,,,
3997.28,-0.00112,-24.17,,,,,,,
3997.31,-0.0011,-21.35,,,,,,,
3997.34,-0.00107,-18.27,,,,,,,
3997.37,-0.00105,-15.21,,,,,,,
3997.41,-0.00102,-11.84,,,,,,,
3997.44,-0.001,-8.35,,,,,,,
3997.47,-0.00097,-5.22,,,,,,,
3997.5,-0.00094,-2.06,,,,,,,
3997.52,-0.00092,1.1,,,,,,,
3997.55,-0.00089,4.12,,,,,,,
3997.58,-0.00087,7.19,,,,,,,
3997.6,-0.00084,10.05,,,,,,,
3997.63,-0.00082,12.98,,,,,,,
3997.65,-0.00079,15.82,,,,,,,
3997.68,-0.00077,18.62,,,,,,,
3997.7,-0.00074,21.32,,,,,,,
3997.73,-0.00071,23.99,,,,,,,
3997.76,-0.00069,26.2,,,,,,,
3997.8,-0.00066,27.96,,,,,,,
3997.86,-0.00064,29.92,,,,,,,
3997.92,-0.00061,32.66,,,,,,,
3997.96,-0.00059,35.25,,,,,,,
3997.99,-0.00056,38.56,,,,,,,
3998.01,-0.00054,41.96,,,,,,,
3998.03,-0.00051,44.52,,,,,,,
3998.04,-0.00049,47.0,,,,,,,
3998.06,-0.00046,49.53,,,,,,,
3998.08,-0.00043,51.89,,,,,,,
3998.09,-0.00041,54.26,,,,,,,
3998.12,-0.00038,56.61,,,,,,,
3998.14,-0.00036,58.64,,,,,,,
3998.16,-0.00033,60.41,,,,,,,
3998.19,-0.00031,62.14,,,,,,,
3998.22,-0.00028,64.16,,,,,,,
3998.26,-0.00026,66.24,,,,,,,
7994.72,-0.00019,64.99,,,,,,,
7994.75,-0.00017,66.73,,,,,,,
7994.79,-0.00014,68.49,,,,,,,
7994.82,-0.00011,70.49,,,,,,,
7994.85,-9e-05,72.43,,,,,,,
7994.88,-6e-05,74.59,,,,,,,
7994.91,-4e-05,77.16,,,,,,,
7994.94,-1e-05,80.0,,,,,,,
7994.97,1e-05,82.86,,,,,,,
7994.99,4e-05,85.53,,,,,,,
7995.01,6e-05,88.36,,,,,,,
7995.03,9e-05,91.13,,,,,,,
7995.05,0.00011,94.23,,,,,,,
7995.07,0.00014,97.06,,,,,,,
7995.08,0.00017,99.8,,,,,,,
7995.1,0.00019,102.13,,,,,,,
7995.11,0.00022,104.52,,,,,,,
7995.13,0.00024,106.8,,,,,,,
7995.14,0.00027,109.14,,,,,,,
7995.16,0.00029,111.26,,,,,,,
7995.18,0.00032,113.21,,,,,,,
7995.19,0.00035,115.12,,,,,,,
7995.21,0.00037,116.94,,,,,,,
7995.23,0.0004,118.71,,,,,,,
7995.25,0.00042,120.39,,,,,,,
7995.27,0.00045,121.83,,,,,,,
7995.29,0.00047,123.1,,,,,,,
7995.31,0.0005,124.34,,,,,,,
7995.33,0.00052,125.37,,,,,,,
7995.35,0.00055,126.36,,,,,,,
7995.37,0.00057,127.3,,,,,,,
7995.39,0.0006,128.28,,,,,,,
7995.42,0.00063,129.08,,,,,,,
7995.44,0.00065,129.85,,,,,,,
7995.47,0.00068,130.67,,,,,,,
7995.49,0.0007,131.47,,,,,,,
7995.52,0.00073,132.17,,,,,,,
7995.54,0.00075,132.83,,,,,,,
7995.57,0.00078,133.6,,,,,,,
7995.6,0.0008,134.54,,,,,,,
7995.63,0.00083,135.52,,,,,,,
7995.66,0.00086,136.66,,,,,,,
7995.69,0.00088,137.63,,,,,,,
7995.71,0.00091,138.67,,,,,,,
7995.74,0.00093,139.67,,,,,,,
7995.76,0.00096,140.77,,,,,,,
7995.79,0.00098,141.98,,,,,,,
7995.83,0.00101,143.64,,,,,,,
7995.86,0.00103,145.2,,,,,,,
7995.88,0.00106,146.49,,,,,,,
7995.91,0.00108,147.73,,,,,,,
7995.93,0.00111,149.07,,,,,,,
7995.96,0.00114,150.4,,,,,,,
7995.98,0.00116,151.69,,,,,,,
7996.0,0.00119,152.88,,,,,,,
7996.03,0.00121,154.04,,,,,,,
7996.05,0.00124,155.1,,,,,,,
7996.07,0.00126,156.12,,,,,,,
7996.1,0.00129,157.12,,,,,,,
7996.12,0.00132,158.11,,,,,,,
7996.15,0.00134,158.94,,,,,,,
7996.17,0.00137,159.74,,,,,,,
7996.19,0.00139,160.39,,,,,,,
7996.21,0.00142,161.11,,,,,,,
7996.24,0.00144,161.76,,,,,,,
7996.26,0.00147,162.33,,,,,,,
7996.29,0.00149,162.87,,,,,,,
7996.31,0.00152,163.35,,,,,,,
7996.33,0.00155,163.71,,,,,,,
7996.36,0.00157,163.98,,,,,,,
7996.38,0.0016,164.23,,,,,,,
7996.4,0.00162,164.42,,,,,,,
7996.43,0.00165,164.48,,,,,,,
7996.46,0.00167,164.52,,,,,,,
7996.48,0.0017,164.59,,,,,,,
7996.51,0.00172,164.7,,,,,,,
7996.53,0.00175,164.82,,,,,,,
7996.56,0.00178,164.96,,,,,,,
7996.59,0.0018,165.14,,,,,,,
7996.61,0.00183,165.33,,,,,,,
7996.64,0.00185,165.61,,,,,,,
7996.66,0.00188,165.87,,,,,,,
7996.68,0.0019,166.07,,,,,,,
7996.71,0.00193,166.19,,,,,,,
7996.73,0.00195,166.25,,,,,,,
7996.75,0.00198,165.78,,,,,,,
7996.79,0.002,163.79,,,,,,,
7996.88,0.00198,148.25,,,,,,,
7996.91,0.00195,142.5,,,,,,,
7996.93,0.00193,137.94,,,,,,,
7996.95,0.0019,133.39,,,,,,,
7996.97,0.00188,128.62,,,,,,,
7996.98,0.00185,124.68,,,,,,,
7997.0,0.00182,120.6,,,,,,,
7997.02,0.0018,116.39,,,,,,,
7997.04,0.00177,112.84,,,,,,,
7997.06,0.00175,108.95,,,,,,,
7997.08,0.00172,104.87,,,,,,,
7997.11,0.0017,100.69,,,,,,,
7997.13,0.00167,96.58,,,,,,,
7997.15,0.00165,93.35,,,,,,,
7997.18,0.00162,89.6,,,,,,,
7997.21,0.00159,85.83,,,,,,,
7997.24,0.00157,81.19,,,,,,,
7997.28,0.00154,76.8,,,,,,,
7997.3,0.00152,72.9,,,,,,,
7997.33,0.00149,68.86,,,,,,,
7997.36,0.00147,65.06,,,,,,,
7997.39,0.00144,61.27,,,,,,,
7997.42,0.00142,57.35,,,,,,,
7997.44,0.00139,53.89,,,,,,,
7997.47,0.00137,50.24,,,,,,,
7997.5,0.00134,46.68,,,,,,,
7997.52,0.00131,43.32,,,,,,,
7997.55,0.00129,40.05,,,,,,,
7997.57,0.00126,36.53,,,,,,,
7997.6,0.00124,32.85,,,,,,,
7997.63,0.00121,29.17,,,,,,,
7997.66,0.00119,25.93,,,,,,,
7997.68,0.00116,22.84,,,,,,,
7997.71,0.00114,19.86,,,,,,,
7997.73,0.00111,16.93,,,,,,,
7997.76,0.00109,13.89,,,,,,,
7997.78,0.00106,10.88,,,,,,,
7997.81,0.00104,8.13,,,,,,,
7997.83,0.00101,5.13,,,,,,,
7997.86,0.00098,2.19,,,,,,,
7997.89,0.00096,-0.65,,,,,,,
7997.91,0.00093,-3.5,,,,,,,
7997.94,0.00091,-6.63,,,,,,,
7997.97,0.00088,-9.41,,,,,,,
7998.0,0.00086,-12.19,,,,,,,
7998.03,0.00083,-14.86,,,,,,,
7998.07,0.00081,-16.89,,,,,,,
7998.19,0.00078,-18.65,,,,,,,
7998.24,0.00076,-21.93,,,,,,,
7998.28,0.00073,-24.71,,,,,,,
7998.31,0.00071,-27.49,,,,,,,
7998.34,0.00068,-29.88,,,,,,,
7998.38,0.00065,-32.56,,,,,,,
7998.41,0.00063,-35.68,,,,,,,
7998.43,0.0006,-38.78,,,,,,,
7998.46,0.00058,-41.86,,,,,,,
7998.47,0.00055,-44.9,,,,,,,
7998.49,0.00053,-48.59,,,,,,,
7998.51,0.0005,-51.72,,,,,,,
7998.52,0.00047,-54.5,,,,,,,
7998.53,0.00045,-57.33,,,,,,,
7998.55,0.00042,-60.32,,,,,,,
7998.56,0.00039,-63.05,,,,,,,
7998.58,0.00037,-65.57,,,,,,,
7998.59,0.00034,-68.23,,,,,,,
7998.6,0.00032,-70.9,,,,,,,
7998.62,0.00029,-73.37,,,,,,,
7998.63,0.00026,-75.95,,,,,,,
7998.64,0.00024,-78.18,,,,,,,
7998.66,0.00021,-80.43,,,,,,,
7998.67,0.00019,-82.63,,,,,,,
7998.69,0.00016,-84.9,,,,,,,
7998.71,0.00014,-86.87,,,,,,,
7998.72,0.00011,-88.89,,,,,,,
7998.74,8e-05,-90.78,,,,,,,
7998.76,6e-05,-92.44,,,,,,,
7998.78,3e-05,-94.12,,,,,,,
7998.8,1e-05,-95.72,,,,,,,
7998.82,-2e-05,-97.18,,,,,,,
7998.84,-5e-05,-98.64,,,,,,,
7998.86,-7e-05,-99.83,,,,,,,
7998.89,-0.0001,-101.07,,,,,,,
7998.91,-0.00012,-102.16,,,,,,,
7998.94,-0.00015,-103.27,,,,,,,
7998.96,-0.00017,-104.58,,,,,,,
7998.99,-0.0002,-105.68,,,,,,,
7999.02,-0.00022,-106.8,,,,,,,
7999.05,-0.00025,-108.02,,,,,,,
7999.07,-0.00027,-109.26,,,,,,,
7999.1,-0.0003,-110.47,,,,,,,
7999.13,-0.00032,-111.79,,,,,,,
7999.16,-0.00035,-113.16,,,,,,,
7999.18,-0.00038,-114.62,,,,,,,
7999.21,-0.0004,-116.15,,,,,,,
7999.24,-0.00043,-117.55,,,,,,,
7999.27,-0.00045,-119.1,,,,,,,
7999.3,-0.00048,-120.61,,,,,,,
7999.32,-0.0005,-122.15,,,,,,,
7999.35,-0.00053,-123.66,,,,,,,
7999.37,-0.00055,-125.12,,,,,,,
7999.4,-0.00058,-126.63,,,,,,,
7999.42,-0.00061,-128.05,,,,,,,
7999.45,-0.00063,-129.43,,,,,,,
7999.47,-0.00066,-130.86,,,,,,,
7999.49,-0.00068,-132.14,,,,,,,
7999.52,-0.00071,-133.49,,,,,,,
7999.54,-0.00073,-134.81,,,,,,,
7999.57,-0.00076,-136.03,,,,,,,
7999.59,-0.00079,-137.13,,,,,,,
7999.62,-0.00081,-138.25,,,,,,,
7999.64,-0.00084,-139.31,,,,,,,
7999.67,-0.00086,-140.41,,,,,,,
7999.69,-0.00089,-141.37,,,,,,,
7999.72,-0.00091,-142.39,,,,,,,
7999.75,-0.00094,-143.45,,,,,,,
7999.77,-0.00096,-144.43,,,,,,,
7999.8,-0.00099,-145.52,,,,,,,
7999.82,-0.00101,-146.26,,,,,,,
7999.82,-0.00102,-146.52,,,,,,,
7999.85,-0.00104,-147.42,,,,,,,
7999.87,-0.00107,-148.38,,,,,,,
7999.9,-0.00109,-149.43,,,,,,,
7999.92,-0.00112,-150.37,,,,,,,
7999.95,-0.00114,-151.21,,,,,,,
7999.97,-0.00117,-151.94,,,,,,,
7999.99,-0.00119,-152.7,,,,,,,
8000.02,-0.00122,-153.5,,,,,,,
8000.05,-0.00124,-154.33,,,,,,,
8000.07,-0.00127,-155.08,,,,,,,
8000.1,-0.0013,-155.86,,,,,,,
8000.12,-0.00132,-156.6,,,,,,,
8000.15,-0.00135,-157.34,,,,,,,
8000.17,-0.00137,-158.12,,,,,,,
8000.2,-0.0014,-158.77,,,,,,,
8000.22,-0.00142,-159.43,,,,,,,
8000.25,-0.00145,-160.14,,,,,,,
8000.27,-0.00147,-160.82,,,,,,,
8000.29,-0.0015,-161.39,,,,,,,
8000.32,-0.00152,-161.87,,,,,,,
8000.34,-0.00155,-162.44,,,,,,,
8000.37,-0.00158,-162.95,,,,,,,
8000.39,-0.0016,-163.35,,,,,,,
8000.42,-0.00163,-163.76,,,,,,,
8000.44,-0.00165,-164.17,,,,,,,
8000.47,-0.00168,-164.54,,,,,,,
8000.49,-0.0017,-164.97,,,,,,,
8000.52,-0.00173,-165.29,,,,,,,
8000.54,-0.00175,-165.65,,,,,,,
8000.57,-0.00178,-165.92,,,,,,,
8000.59,-0.00181,-166.24,,,,,,,
8000.62,-0.00183,-166.47,,,,,,,
8000.64,-0.00186,-166.63,,,,,,,
8000.67,-0.00188,-166.88,,,,,,,
8000.69,-0.00191,-167.09,,,,,,,
8000.72,-0.00193,-167.29,,,,,,,
8000.74,-0.00196,-167.2,,,,,,,
8000.77,-0.00198,-166.35,,,,,,,
8000.81,-0.00201,-163.18,,,,,,,
8000.89,-0.00198,-148.63,,,,,,,
8000.91,-0.00196,-143.2,,,,,,,
8000.93,-0.00193,-138.08,,,,,,,
8000.95,-0.00191,-133.14,,,,,,,
8000.97,-0.00188,-128.78,,,,,,,
8000.99,-0.00186,-124.45,,,,,,,
8001.01,-0.00183,-120.54,,,,,,,
8001.02,-0.00181,-116.98,,,,,,,
8001.04,-0.00178,-113.3,,,,,,,
8001.06,-0.00175,-109.52,,,,,,,
8001.08,-0.00173,-105.66,,,,,,,
8001.1,-0.0017,-101.84,,,,,,,
8001.12,-0.00168,-98.44,,,,,,,
8001.14,-0.00165,-95.08,,,,,,,
8001.16,-0.00163,-91.68,,,,,,,
8001.19,-0.0016,-88.22,,,,,,,
8001.21,-0.00158,-84.59,,,,,,,
8001.24,-0.00155,-81.07,,,,,,,
8001.27,-0.00152,-77.16,,,,,,,
8001.3,-0.0015,-73.63,,,,,,,
8001.34,-0.00147,-69.65,,,,,,,
8001.37,-0.00145,-65.64,,,,,,,
8001.4,-0.00142,-61.6,,,,,,,
8001.42,-0.0014,-58.1,,,,,,,
8001.45,-0.00137,-54.73,,,,,,,
8001.48,-0.00135,-50.84,,,,,,,
8001.51,-0.00132,-47.26,,,,,,,
8001.53,-0.0013,-44.03,,,,,,,
8001.56,-0.00127,-40.56,,,,,,,
8001.58,-0.00124,-37.17,,,,,,,
8001.61,-0.00122,-34.05,,,,,,,
8001.63,-0.00119,-30.78,,,,,,,
8001.66,-0.00117,-27.83,,,,,,,
8001.68,-0.00114,-24.85,,,,,,,
8001.71,-0.00112,-21.92,,,,,,,
8001.73,-0.00109,-18.88,,,,,,,
8001.76,-0.00107,-15.98,,,,,,,
8001.78,-0.00104,-13.18,,,,,,,
8001.81,-0.00101,-10.59,,,,,,,
8001.83,-0.00099,-7.96,,,,,,,
8001.86,-0.00096,-5.16,,,,,,,
8001.89,-0.00094,-2.07,,,,,,,
8001.92,-0.00091,0.83,,,,,,,
8001.95,-0.00089,3.72,,,,,,,
8001.98,-0.00086,6.61,,,,,,,
8002.01,-0.00084,9.71,,,,,,,
8002.04,-0.00081,12.34,,,,,,,
8002.07,-0.00078,15.55,,,,,,,
8002.1,-0.00076,18.85,,,,,,,
8002.12,-0.00073,21.77,,,,,,,
8002.15,-0.00071,24.23,,,,,,,
8002.18,-0.00068,26.57,,,,,,,
8002.23,-0.00066,28.97,,,,,,,
8002.28,-0.00063,31.46,,,,,,,
8002.33,-0.00061,33.93,,,,,,,
8002.37,-0.00058,36.72,,,,,,,
8002.4,-0.00056,39.99,,,,,,,
8002.42,-0.00053,43.45,,,,,,,
8002.44,-0.00051,46.33,,,,,,,
8002.46,-0.00048,49.4,,,,,,,
8002.48,-0.00045,52.49,,,,,,,
8002.5,-0.00043,55.43,,,,,,,
8002.52,-0.0004,57.81,,,,,,,
8002.55,-0.00038,60.36,,,,,,,
8002.58,-0.00035,62.81,,,,,,,
8002.6,-0.00033,65.18,,,,,,,
8002.64,-0.0003,67.54,,,,,,,
8002.67,-0.00028,69.75,,,,,,,
8002.7,-0.00025,71.93,,,,,,,
12783.97,-0.00023,71.51,,,,,,,
12784.01,-0.0002,73.84,,,,,,,
12784.04,-0.00018,76.11,,,,,,,
12784.07,-0.00015,78.45,,,,,,,
12784.1,-0.00012,80.7,,,,,,,
12784.13,-0.0001,82.98,,,,,,,
12784.15,-7e-05,85.67,,,,,,,
12784.17,-5e-05,88.46,,,,,,,
12784.19,-2e-05,90.97,,,,,,,
12784.21,0.0,93.34,,,,,,,
12784.22,3e-05,95.99,,,,,,,
12784.24,5e-05,98.56,,,,,,,
12784.25,8e-05,100.87,,,,,,,
12784.27,0.00011,103.23,,,,,,,
12784.29,0.00013,105.53,,,,,,,
12784.3,0.00016,107.84,,,,,,,
12784.32,0.00018,110.15,,,,,,,
12784.34,0.00021,112.16,,,,,,,
12784.35,0.00023,114.08,,,,,,,
12784.37,0.00026,115.91,,,,,,,
12784.39,0.00029,117.72,,,,,,,
12784.41,0.00031,119.31,,,,,,,
12784.43,0.00034,120.84,,,,,,,
12784.45,0.00036,122.24,,,,,,,
12784.47,0.00039,123.67,,,,,,,
12784.49,0.00041,124.82,,,,,,,
12784.51,0.00044,125.95,,,,,,,
12784.54,0.00047,127.2,,,,,,,
12784.56,0.00049,128.28,,,,,,,
12784.59,0.00052,129.46,,,,,,,
12784.62,0.00054,130.74,,,,,,,
12784.64,0.00057,131.73,,,,,,,
12784.67,0.00059,132.78,,,,,,,
12784.7,0.00062,133.96,,,,,,,
12784.72,0.00064,135.12,,,,,,,
12784.75,0.00067,136.29,,,,,,,
12784.77,0.00069,137.37,,,,,,,
12784.8,0.00072,138.48,,,,,,,
12784.82,0.00075,139.54,,,,,,,
12784.85,0.00077,140.77,,,,,,,
12784.87,0.0008,141.86,,,,,,,
12784.9,0.00082,142.87,,,,,,,
12784.92,0.00085,143.75,,,,,,,
12784.94,0.00087,144.68,,,,,,,
12784.97,0.0009,145.6,,,,,,,
12784.99,0.00092,146.52,,,,,,,
12785.02,0.00095,147.42,,,,,,,
12785.04,0.00098,148.32,,,,,,,
12785.07,0.001,149.06,,,,,,,
12785.09,0.00103,149.81,,,,,,,
12785.11,0.00105,150.48,,,,,,,
12785.14,0.00108,151.1,,,,,,,
12785.16,0.0011,151.78,,,,,,,
12785.19,0.00113,152.36,,,,,,,
12785.22,0.00116,152.97,,,,,,,
12785.24,0.00118,153.58,,,,,,,
12785.27,0.00121,154.18,,,,,,,
12785.29,0.00123,154.83,,,,,,,
12785.32,0.00126,155.42,,,,,,,
12785.35,0.00128,156.08,,,,,,,
12785.37,0.00131,156.71,,,,,,,
12785.4,0.00133,157.37,,,,,,,
12785.42,0.00136,157.94,,,,,,,
12785.44,0.00138,158.46,,,,,,,
12785.47,0.00141,158.98,,,,,,,
12785.49,0.00144,159.44,,,,,,,
12785.52,0.00146,159.88,,,,,,,
12785.55,0.00149,160.29,,,,,,,
12785.57,0.00151,160.72,,,,,,,
12785.6,0.00154,161.08,,,,,,,
12785.62,0.00156,161.46,,,,,,,
12785.65,0.00159,161.86,,,,,,,
12785.67,0.00162,162.17,,,,,,,
12785.69,0.00164,162.48,,,,,,,
12785.71,0.00167,162.7,,,,,,,
12785.74,0.00169,162.94,,,,,,,
12785.76,0.00172,163.08,,,,,,,
12785.78,0.00174,163.07,,,,,,,
12785.8,0.00177,163.07,,,,,,,
12785.83,0.00179,163.05,,,,,,,
12785.85,0.00182,162.9,,,,,,,
12785.87,0.00184,162.71,,,,,,,
12785.9,0.00187,162.44,,,,,,,
12785.93,0.00189,162.11,,,,,,,
12785.95,0.00192,161.81,,,,,,,
12785.98,0.00194,161.6,,,,,,,
12786.0,0.00197,161.22,,,,,,,
12786.03,0.002,160.15,,,,,,,
12786.15,0.00197,141.8,,,,,,,
12786.18,0.00194,136.23,,,,,,,
12786.2,0.00192,131.11,,,,,,,
12786.22,0.00189,126.45,,,,,,,
12786.24,0.00187,122.47,,,,,,,
12786.26,0.00184,118.51,,,,,,,
12786.27,0.00181,114.99,,,,,,,
12786.29,0.00179,111.58,,,,,,,
12786.31,0.00176,108.31,,,,,,,
12786.33,0.00174,104.22,,,,,,,
12786.35,0.00171,100.27,,,,,,,
12786.38,0.00169,96.38,,,,,,,
12786.4,0.00166,93.09,,,,,,,
12786.42,0.00163,89.85,,,,,,,
12786.45,0.00161,86.55,,,,,,,
12786.48,0.00158,82.86,,,,,,,
12786.51,0.00156,79.2,,,,,,,
12786.53,0.00153,75.76,,,,,,,
12786.57,0.00151,71.6,,,,,,,
12786.6,0.00148,67.64,,,,,,,
12786.63,0.00146,63.93,,,,,,,
12786.66,0.00143,60.32,,,,,,,
12786.69,0.0014,56.63,,,,,,,
12786.72,0.00138,52.97,,,,,,,
12786.74,0.00135,49.29,,,,,,,
12786.77,0.00133,45.22,,,,,,,
12786.81,0.0013,40.77,,,,,,,
12786.84,0.00128,36.63,,,,,,,
12786.87,0.00125,32.8,,,,,,,
12786.89,0.00123,29.15,,,,,,,
12786.92,0.0012,25.64,,,,,,,
12786.94,0.00118,22.22,,,,,,,
12786.97,0.00115,18.72,,,,,,,
12786.99,0.00113,15.63,,,,,,,
12787.02,0.0011,12.66,,,,,,,
12787.04,0.00107,9.34,,,,,,,
12787.06,0.00105,6.54,,,,,,,
12787.09,0.00102,4.01,,,,,,,
12787.12,0.001,0.86,,,,,,,
12787.15,0.00097,-2.44,,,,,,,
12787.18,0.00095,-5.76,,,,,,,
12787.2,0.00092,-8.84,,,,,,,
12787.23,0.0009,-11.52,,,,,,,
12787.26,0.00087,-14.17,,,,,,,
12787.29,0.00085,-16.64,,,,,,,
12787.37,0.00082,-17.67,,,,,,,
12787.43,0.00079,-18.96,,,,,,,
12787.48,0.00077,-21.15,,,,,,,
12787.51,0.00074,-23.43,,,,,,,
12787.54,0.00072,-25.75,,,,,,,
12787.58,0.00069,-27.98,,,,,,,
12787.62,0.00067,-30.3,,,,,,,
12787.66,0.00064,-33.77,,,,,,,
12787.68,0.00062,-37.2,,,,,,,
12787.71,0.00059,-40.6,,,,,,,
12787.73,0.00057,-44.33,,,,,,,
12787.74,0.00054,-47.76,,,,,,,
12787.76,0.00051,-51.16,,,,,,,
12787.77,0.00049,-54.12,,,,,,,
12787.79,0.00046,-57.13,,,,,,,
12787.81,0.00044,-60.48,,,,,,,
12787.82,0.00041,-63.56,,,,,,,
12787.83,0.00038,-66.39,,,,,,,
12787.85,0.00036,-69.16,,,,,,,
12787.86,0.00033,-72.11,,,,,,,
12787.88,0.00031,-74.88,,,,,,,
12787.89,0.00028,-77.51,,,,,,,
12787.91,0.00026,-80.21,,,,,,,
12787.92,0.00023,-82.71,,,,,,,
12787.93,0.00021,-84.84,,,,,,,
12787.95,0.00018,-86.99,,,,,,,
12787.96,0.00015,-88.98,,,,,,,
12787.98,0.00013,-91.1,,,,,,,
12788.0,0.0001,-93.13,,,,,,,
12788.02,8e-05,-94.97,,,,,,,
12788.03,5e-05,-96.55,,,,,,,
12788.05,3e-05,-98.44,,,,,,,
12788.08,0.0,-100.14,,,,,,,
12788.1,-3e-05,-101.59,,,,,,,
12788.12,-5e-05,-102.95,,,,,,,
12788.14,-8e-05,-104.31,,,,,,,
12788.16,-0.0001,-105.47,,,,,,,
12788.18,-0.00013,-106.51,,,,,,,
12788.21,-0.00015,-107.45,,,,,,,
12788.23,-0.00018,-108.31,,,,,,,
12788.25,-0.0002,-109.11,,,,,,,
12788.28,-0.00023,-109.84,,,,,,,
12788.3,-0.00025,-110.53,,,,,,,
12788.33,-0.00028,-111.24,,,,,,,
12788.36,-0.00031,-112.02,,,,,,,
12788.39,-0.00033,-112.86,,,,,,,
12788.42,-0.00036,-113.82,,,,,,,
12788.45,-0.00038,-114.92,,,,,,,
12788.48,-0.00041,-116.22,,,,,,,
12788.51,-0.00043,-117.39,,,,,,,
12788.54,-0.00046,-118.65,,,,,,,
12788.57,-0.00048,-119.99,,,,,,,
12788.59,-0.00051,-121.43,,,,,,,
12788.62,-0.00054,-122.84,,,,,,,
12788.64,-0.00056,-124.09,,,,,,,
12788.67,-0.00059,-125.42,,,,,,,
12788.69,-0.00061,-126.77,,,,,,,
12788.71,-0.00064,-127.98,,,,,,,
12788.74,-0.00066,-129.26,,,,,,,
12788.76,-0.00069,-130.41,,,,,,,
12788.79,-0.00071,-131.68,,,,,,,
12788.82,-0.00074,-132.92,,,,,,,
12788.84,-0.00076,-134.12,,,,,,,
12788.87,-0.00079,-135.3,,,,,,,
12788.9,-0.00082,-136.46,,,,,,,
12788.92,-0.00084,-137.71,,,,,,,
12788.95,-0.00087,-138.94,,,,,,,
12788.97,-0.00089,-140.15,,,,,,,
12789.0,-0.00092,-141.29,,,,,,,
12789.02,-0.00094,-142.28,,,,,,,
12789.04,-0.00097,-143.27,,,,,,,
12789.07,-0.00099,-144.29,,,,,,,
12789.09,-0.00102,-145.34,,,,,,,
12789.12,-0.00104,-146.39,,,,,,,
12789.15,-0.00107,-147.48,,,,,,,
12789.18,-0.0011,-148.45,,,,,,,
12789.2,-0.00112,-149.54,,,,,,,
12789.23,-0.00115,-150.61,,,,,,,
12789.25,-0.00117,-151.78,,,,,,,
12789.28,-0.0012,-152.94,,,,,,,
12789.31,-0.00122,-154.03,,,,,,,
12789.33,-0.00125,-154.91,,,,,,,
12789.35,-0.00127,-155.94,,,,,,,
12789.37,-0.0013,-156.89,,,,,,,
12789.4,-0.00132,-157.74,,,,,,,
12789.42,-0.00135,-158.45,,,,,,,
12789.44,-0.00138,-159.07,,,,,,,
12789.46,-0.0014,-159.66,,,,,,,
12789.48,-0.00143,-160.31,,,,,,,
12789.51,-0.00145,-160.83,,,,,,,
12789.53,-0.00148,-161.3,,,,,,,
12789.56,-0.0015,-161.6,,,,,,,
12789.59,-0.00153,-161.96,,,,,,,
12789.62,-0.00155,-162.48,,,,,,,
12789.64,-0.00158,-162.89,,,,,,,
12789.67,-0.0016,-163.42,,,,,,,
12789.69,-0.00163,-163.92,,,,,,,
12789.72,-0.00165,-164.37,,,,,,,
12789.74,-0.00168,-164.8,,,,,,,
12789.76,-0.0017,-165.22,,,,,,,
12789.78,-0.00173,-165.54,,,,,,,
12789.81,-0.00176,-165.86,,,,,,,
12789.82,-0.00177,-165.92,,,,,,,
12789.83,-0.00178,-166.02,,,,,,,
12789.86,-0.00181,-166.2,,,,,,,
12789.88,-0.00183,-166.38,,,,,,,
12789.91,-0.00186,-166.5,,,,,,,
12789.93,-0.00188,-166.59,,,,,,,
12789.96,-0.00191,-166.66,,,,,,,
12789.98,-0.00193,-166.75,,,,,,,
12790.01,-0.00196,-166.65,,,,,,,
12790.04,-0.00198,-165.91,,,,,,,
12790.08,-0.00201,-162.92,,,,,,,
12790.16,-0.00198,-148.08,,,,,,,
12790.19,-0.00196,-141.48,,,,,,,
12790.21,-0.00193,-135.5,,,,,,,
12790.23,-0.00191,-130.34,,,,,,,
12790.25,-0.00188,-125.59,,,,,,,
12790.27,-0.00186,-121.23,,,,,,,
12790.28,-0.00183,-116.98,,,,,,,
12790.3,-0.00181,-112.82,,,,,,,
12790.32,-0.00178,-108.75,,,,,,,
12790.34,-0.00175,-104.66,,,,,,,
12790.36,-0.00173,-100.68,,,,,,,
12790.38,-0.0017,-96.67,,,,,,,
12790.4,-0.00168,-92.88,,,,,,,
12790.42,-0.00165,-89.24,,,,,,,
12790.44,-0.00163,-85.86,,,,,,,
12790.47,-0.0016,-82.54,,,,,,,
12790.49,-0.00157,-79.16,,,,,,,
12790.51,-0.00155,-76.06,,,,,,,
12790.54,-0.00152,-72.63,,,,,,,
12790.57,-0.0015,-68.93,,,,,,,
12790.6,-0.00147,-65.33,,,,,,,
12790.63,-0.00145,-61.98,,,,,,,
12790.65,-0.00142,-58.76,,,,,,,
12790.68,-0.0014,-55.59,,,,,,,
12790.71,-0.00137,-52.08,,,,,,,
12790.74,-0.00135,-47.98,,,,,,,
12790.77,-0.00132,-44.48,,,,,,,
12790.8,-0.0013,-41.2,,,,,,,
12790.82,-0.00127,-37.81,,,,,,,
12790.85,-0.00125,-34.51,,,,,,,
12790.87,-0.00122,-31.41,,,,,,,
12790.9,-0.00119,-28.23,,,,,,,
12790.92,-0.00117,-25.16,,,,,,,
12790.95,-0.00114,-22.02,,,,,,,
12790.98,-0.00112,-19.0,,,,,,,
12791.0,-0.00109,-16.01,,,,,,,
12791.03,-0.00107,-12.66,,,,,,,
12791.06,-0.00104,-9.09,,,,,,,
12791.09,-0.00102,-6.06,,,,,,,
12791.12,-0.00099,-2.62,,,,,,,
12791.15,-0.00097,0.64,,,,,,,
12791.17,-0.00094,3.33,,,,,,,
12791.2,-0.00091,5.93,,,,,,,
12791.22,-0.00089,8.93,,,,,,,
12791.25,-0.00086,12.15,,,,,,,
12791.28,-0.00084,15.45,,,,,,,
12791.31,-0.00081,18.53,,,,,,,
12791.34,-0.00079,22.05,,,,,,,
12791.38,-0.00076,25.24,,,,,,,
12791.42,-0.00074,27.94,,,,,,,
12791.47,-0.00071,30.68,,,,,,,
12791.51,-0.00069,33.11,,,,,,,
12791.55,-0.00066,35.77,,,,,,,
12791.59,-0.00063,38.35,,,,,,,
12791.61,-0.00061,41.22,,,,,,,
12791.63,-0.00058,44.92,,,,,,,
12791.65,-0.00056,47.93,,,,,,,
12791.67,-0.00053,50.62,,,,,,,
12791.69,-0.00051,53.49,,,,,,,
12791.71,-0.00048,56.11,,,,,,,
12791.74,-0.00046,58.7,,,,,,,
12791.76,-0.00043,61.2,,,,,,,
12791.79,-0.0004,63.34,,,,,,,
12791.81,-0.00038,65.39,,,,,,,
12791.84,-0.00035,67.44,,,,,,,
12791.87,-0.00033,69.19,,,,,,,
12791.9,-0.0003,70.93,,,,,,,
12791.93,-0.00028,72.69,,,,,,,
12791.95,-0.00025,74.25,,,,,,,
16003.53,-0.00019,64.43,,,,,,,
16003.56,-0.00016,66.23,,,,,,,
16003.59,-0.00014,68.06,,,,,,,
16003.62,-0.00011,69.93,,,,,,,
16003.65,-9e-05,72.0,,,,,,,
16003.69,-6e-05,74.38,,,,,,,
16003.72,-4e-05,76.88,,,,,,,
16003.75,-1e-05,79.06,,,,,,,
16003.78,1e-05,81.3,,,,,,,
16003.8,4e-05,83.46,,,,,,,
16003.82,6e-05,86.01,,,,,,,
16003.84,9e-05,88.75,,,,,,,
16003.86,0.00012,91.5,,,,,,,
16003.88,0.00014,94.13,,,,,,,
16003.89,0.00017,96.72,,,,,,,
16003.91,0.00019,99.48,,,,,,,
16003.93,0.00022,101.93,,,,,,,
16003.95,0.00025,104.35,,,,,,,
16003.96,0.00027,106.64,,,,,,,
16003.98,0.0003,109.1,,,,,,,
16004.0,0.00032,111.39,,,,,,,
16004.01,0.00035,113.53,,,,,,,
16004.03,0.00037,115.47,,,,,,,
16004.05,0.0004,117.26,,,,,,,
16004.07,0.00042,119.0,,,,,,,
16004.08,0.00045,120.7,,,,,,,
16004.1,0.00048,122.36,,,,,,,
16004.12,0.0005,123.75,,,,,,,
16004.15,0.00053,125.11,,,,,,,
16004.17,0.00055,126.45,,,,,,,
16004.19,0.00058,127.73,,,,,,,
16004.22,0.0006,129.0,,,,,,,
16004.24,0.00063,130.08,,,,,,,
16004.26,0.00065,131.18,,,,,,,
16004.29,0.00068,132.28,,,,,,,
16004.31,0.0007,133.3,,,,,,,
16004.34,0.00073,134.23,,,,,,,
16004.36,0.00076,135.25,,,,,,,
16004.39,0.00078,136.23,,,,,,,
16004.41,0.00081,137.15,,,,,,,
16004.44,0.00083,138.06,,,,,,,
16004.46,0.00086,138.89,,,,,,,
16004.49,0.00088,139.75,,,,,,,
16004.52,0.00091,140.56,,,,,,,
16004.55,0.00093,141.65,,,,,,,
16004.58,0.00096,142.74,,,,,,,
16004.6,0.00098,143.76,,,,,,,
16004.62,0.00101,144.71,,,,,,,
16004.65,0.00104,145.75,,,,,,,
16004.67,0.00106,146.6,,,,,,,
16004.69,0.00109,147.52,,,,,,,
16004.72,0.00111,148.41,,,,,,,
16004.75,0.00114,149.25,,,,,,,
16004.77,0.00116,149.98,,,,,,,
16004.8,0.00119,150.87,,,,,,,
16004.82,0.00121,151.63,,,,,,,
16004.85,0.00124,152.41,,,,,,,
16004.87,0.00126,153.3,,,,,,,
16004.9,0.00129,154.15,,,,,,,
16004.92,0.00132,154.86,,,,,,,
16004.95,0.00134,155.56,,,,,,,
16004.97,0.00137,156.14,,,,,,,
16004.99,0.00139,156.67,,,,,,,
16005.02,0.00142,157.21,,,,,,,
16005.04,0.00144,157.61,,,,,,,
16005.06,0.00147,158.02,,,,,,,
16005.08,0.0015,158.33,,,,,,,
16005.1,0.00152,158.6,,,,,,,
16005.13,0.00155,158.81,,,,,,,
16005.16,0.00157,158.86,,,,,,,
16005.18,0.0016,158.87,,,,,,,
16005.21,0.00162,158.97,,,,,,,
16005.24,0.00165,159.14,,,,,,,
16005.27,0.00167,159.38,,,,,,,
16005.3,0.0017,159.75,,,,,,,
16005.32,0.00172,160.2,,,,,,,
16005.35,0.00175,160.65,,,,,,,
16005.37,0.00178,161.0,,,,,,,
16005.39,0.0018,161.36,,,,,,,
16005.42,0.00183,161.74,,,,,,,
16005.44,0.00185,162.03,,,,,,,
16005.47,0.00188,162.26,,,,,,,
16005.49,0.0019,162.47,,,,,,,
16005.52,0.00193,162.7,,,,,,,
16005.54,0.00195,162.67,,,,,,,
16005.57,0.00198,161.97,,,,,,,
16005.71,0.00195,140.41,,,,,,,
16005.73,0.00193,135.46,,,,,,,
16005.75,0.0019,130.86,,,,,,,
16005.77,0.00188,126.8,,,,,,,
16005.79,0.00185,123.02,,,,,,,
16005.81,0.00183,119.09,,,,,,,
16005.82,0.0018,115.37,,,,,,,
16005.84,0.00178,111.67,,,,,,,
16005.86,0.00175,107.33,,,,,,,
16005.89,0.00172,103.01,,,,,,,
16005.91,0.0017,99.34,,,,,,,
16005.93,0.00167,95.96,,,,,,,
16005.95,0.00165,92.56,,,,,,,
16005.98,0.00162,89.0,,,,,,,
16006.0,0.0016,85.79,,,,,,,
16006.03,0.00157,82.46,,,,,,,
16006.06,0.00155,78.78,,,,,,,
16006.09,0.00152,74.96,,,,,,,
16006.12,0.0015,71.07,,,,,,,
16006.16,0.00147,66.8,,,,,,,
16006.19,0.00144,62.66,,,,,,,
16006.22,0.00142,58.97,,,,,,,
16006.24,0.00139,55.39,,,,,,,
16006.27,0.00137,52.01,,,,,,,
16006.29,0.00134,48.82,,,,,,,
16006.32,0.00132,45.53,,,,,,,
16006.35,0.00129,42.05,,,,,,,
16006.37,0.00127,39.07,,,,,,,
16006.39,0.00124,35.88,,,,,,,
16006.42,0.00121,32.95,,,,,,,
16006.44,0.00119,30.4,,,,,,,
16006.46,0.00116,27.76,,,,,,,
16006.49,0.00114,24.9,,,,,,,
16006.52,0.00111,21.99,,,,,,,
16006.55,0.00109,18.96,,,,,,,
16006.57,0.00106,16.0,,,,,,,
16006.61,0.00104,12.74,,,,,,,
16006.64,0.00101,9.66,,,,,,,
16006.67,0.00098,6.57,,,,,,,
16006.69,0.00096,3.47,,,,,,,
16006.73,0.00093,0.09,,,,,,,
16006.76,0.00091,-3.6,,,,,,,
16006.79,0.00088,-6.76,,,,,,,
16006.81,0.00086,-9.82,,,,,,,
16006.85,0.00083,-13.15,,,,,,,
16006.88,0.00081,-16.06,,,,,,,
16006.92,0.00078,-17.83,,,,,,,
16007.01,0.00076,-18.84,,,,,,,
16007.06,0.00073,-21.45,,,,,,,
16007.09,0.00071,-23.47,,,,,,,
16007.12,0.00068,-25.79,,,,,,,
16007.15,0.00065,-27.93,,,,,,,
16007.19,0.00063,-29.89,,,,,,,
16007.22,0.0006,-31.97,,,,,,,
16007.25,0.00058,-34.74,,,,,,,
16007.27,0.00055,-37.45,,,,,,,
16007.29,0.00053,-40.26,,,,,,,
16007.31,0.0005,-43.25,,,,,,,
16007.32,0.00048,-46.62,,,,,,,
16007.34,0.00045,-49.41,,,,,,,
16007.35,0.00043,-52.15,,,,,,,
16007.37,0.0004,-54.97,,,,,,,
16007.38,0.00037,-57.61,,,,,,,
16007.4,0.00035,-60.25,,,,,,,
16007.41,0.00032,-62.71,,,,,,,
16007.42,0.0003,-65.17,,,,,,,
16007.44,0.00027,-67.79,,,,,,,
16007.46,0.00025,-70.3,,,,,,,
16007.47,0.00022,-72.61,,,,,,,
16007.48,0.00019,-74.76,,,,,,,
16007.5,0.00017,-76.83,,,,,,,
16007.51,0.00014,-78.86,,,,,,,
16007.53,0.00012,-80.93,,,,,,,
16007.55,9e-05,-82.91,,,,,,,
16007.56,6e-05,-84.73,,,,,,,
16007.58,4e-05,-86.43,,,,,,,
16007.6,1e-05,-88.34,,,,,,,
16007.63,-1e-05,-89.98,,,,,,,
16007.65,-4e-05,-91.54,,,,,,,
16007.67,-6e-05,-93.22,,,,,,,
16007.7,-9e-05,-94.64,,,,,,,
16007.72,-0.00012,-96.01,,,,,,,
16007.74,-0.00014,-97.28,,,,,,,
16007.77,-0.00017,-98.48,,,,,,,
16007.79,-0.00019,-99.7,,,,,,,
16007.82,-0.00022,-100.95,,,,,,,
16007.85,-0.00024,-102.35,,,,,,,
16007.88,-0.00027,-103.92,,,,,,,
16007.91,-0.00029,-105.55,,,,,,,
16007.94,-0.00032,-106.89,,,,,,,
16007.96,-0.00034,-108.27,,,,,,,
16007.99,-0.00037,-109.75,,,,,,,
16008.01,-0.0004,-111.28,,,,,,,
16008.04,-0.00042,-112.71,,,,,,,
16008.06,-0.00045,-114.13,,,,,,,
16008.09,-0.00047,-115.57,,,,,,,
16008.11,-0.0005,-117.01,,,,,,,
16008.14,-0.00052,-118.42,,,,,,,
16008.17,-0.00055,-119.88,,,,,,,
16008.2,-0.00057,-121.43,,,,,,,
16008.22,-0.0006,-122.92,,,,,,,
16008.25,-0.00063,-124.41,,,,,,,
16008.28,-0.00065,-125.89,,,,,,,
16008.3,-0.00068,-127.26,,,,,,,
16008.32,-0.0007,-128.51,,,,,,,
16008.35,-0.00073,-129.66,,,,,,,
16008.37,-0.00075,-130.9,,,,,,,
16008.39,-0.00078,-131.95,,,,,,,
16008.41,-0.0008,-133.12,,,,,,,
16008.44,-0.00083,-134.32,,,,,,,
16008.46,-0.00086,-135.36,,,,,,,
16008.49,-0.00088,-136.41,,,,,,,
16008.51,-0.00091,-137.33,,,,,,,
16008.54,-0.00093,-138.28,,,,,,,
16008.56,-0.00096,-139.19,,,,,,,
16008.59,-0.00098,-140.05,,,,,,,
16008.61,-0.00101,-140.92,,,,,,,
16008.64,-0.00103,-141.99,,,,,,,
16008.67,-0.00106,-142.87,,,,,,,
16008.7,-0.00108,-143.8,,,,,,,
16008.72,-0.00111,-144.76,,,,,,,
16008.75,-0.00114,-145.79,,,,,,,
16008.78,-0.00116,-146.89,,,,,,,
16008.81,-0.00119,-148.0,,,,,,,
16008.84,-0.00121,-149.18,,,,,,,
16008.86,-0.00124,-150.32,,,,,,,
16008.89,-0.00126,-151.4,,,,,,,
16008.91,-0.00129,-152.35,,,,,,,
16008.93,-0.00131,-153.2,,,,,,,
16008.95,-0.00134,-154.06,,,,,,,
16008.97,-0.00136,-154.81,,,,,,,
16009.0,-0.00139,-155.59,,,,,,,
16009.02,-0.00142,-156.26,,,,,,,
16009.04,-0.00144,-156.88,,,,,,,
16009.07,-0.00147,-157.39,,,,,,,
16009.09,-0.00149,-157.88,,,,,,,
16009.12,-0.00152,-158.37,,,,,,,
16009.15,-0.00154,-158.88,,,,,,,
16009.18,-0.00157,-159.41,,,,,,,
16009.2,-0.00159,-160.05,,,,,,,
16009.23,-0.00162,-160.67,,,,,,,
16009.25,-0.00164,-161.24,,,,,,,
16009.28,-0.00167,-161.76,,,,,,,
16009.3,-0.0017,-162.3,,,,,,,
16009.32,-0.00172,-162.78,,,,,,,
16009.35,-0.00175,-163.31,,,,,,,
16009.37,-0.00177,-163.68,,,,,,,
16009.39,-0.0018,-164.03,,,,,,,
16009.41,-0.00182,-164.36,,,,,,,
16009.44,-0.00185,-164.6,,,,,,,
16009.46,-0.00188,-164.8,,,,,,,
16009.49,-0.0019,-164.88,,,,,,,
16009.51,-0.00193,-164.89,,,,,,,
16009.54,-0.00195,-164.92,,,,,,,
16009.56,-0.00198,-164.32,,,,,,,
16009.61,-0.002,-161.8,,,,,,,
16009.69,-0.00198,-148.66,,,,,,,
16009.71,-0.00195,-142.41,,,,,,,
16009.73,-0.00193,-137.59,,,,,,,
16009.75,-0.0019,-132.94,,,,,,,
16009.77,-0.00187,-128.42,,,,,,,
16009.79,-0.00185,-123.89,,,,,,,
16009.81,-0.00182,-119.69,,,,,,,
16009.82,-0.00182,-118.46,,,,,,,
16009.83,-0.0018,-115.36,,,,,,,
16009.85,-0.00177,-111.2,,,,,,,
16009.88,-0.00175,-106.72,,,,,,,
16009.9,-0.00172,-102.69,,,,,,,
16009.92,-0.0017,-98.93,,,,,,,
16009.94,-0.00167,-94.88,,,,,,,
16009.97,-0.00165,-90.58,,,,,,,
16010.0,-0.00162,-86.82,,,,,,,
16010.02,-0.00159,-82.53,,,,,,,
16010.05,-0.00157,-78.66,,,,,,,
16010.08,-0.00154,-75.02,,,,,,,
16010.1,-0.00152,-71.33,,,,,,,
16010.13,-0.00149,-68.01,,,,,,,
16010.15,-0.00147,-64.96,,,,,,,
16010.18,-0.00144,-61.42,,,,,,,
16010.2,-0.00142,-57.97,,,,,,,
16010.23,-0.00139,-54.65,,,,,,,
16010.26,-0.00137,-50.85,,,,,,,
16010.29,-0.00134,-47.04,,,,,,,
16010.32,-0.00132,-43.84,,,,,,,
16010.34,-0.00129,-40.58,,,,,,,
16010.37,-0.00126,-37.57,,,,,,,
16010.39,-0.00124,-34.27,,,,,,,
16010.42,-0.00121,-31.1,,,,,,,
16010.45,-0.00119,-27.69,,,,,,,
16010.47,-0.00116,-24.3,,,,,,,
16010.5,-0.00114,-21.03,,,,,,,
16010.53,-0.00111,-17.98,,,,,,,
16010.55,-0.00109,-14.99,,,,,,,
16010.58,-0.00106,-11.89,,,,,,,
16010.61,-0.00104,-8.67,,,,,,,
16010.64,-0.00101,-5.58,,,,,,,
16010.66,-0.00099,-2.39,,,,,,,
16010.69,-0.00096,0.98,,,,,,,
16010.72,-0.00093,4.11,,,,,,,
16010.74,-0.00091,6.96,,,,,,,
16010.77,-0.00088,9.52,,,,,,,
16010.79,-0.00086,12.23,,,,,,,
16010.82,-0.00083,15.1,,,,,,,
16010.85,-0.00081,17.99,,,,,,,
16010.87,-0.00078,20.58,,,,,,,
16010.9,-0.00076,23.03,,,,,,,
16010.93,-0.00073,25.28,,,,,,,
16010.98,-0.0007,27.61,,,,,,,
16011.03,-0.00068,29.79,,,,,,,
16011.07,-0.00065,32.26,,,,,,,
16011.11,-0.00063,34.55,,,,,,,
16011.15,-0.0006,37.15,,,,,,,
16011.17,-0.00058,40.59,,,,,,,
16011.19,-0.00055,43.65,,,,,,,
16011.21,-0.00053,46.34,,,,,,,
16011.23,-0.0005,48.83,,,,,,,
16011.25,-0.00047,51.25,,,,,,,
16011.27,-0.00045,53.73,,,,,,,
16011.29,-0.00042,55.97,,,,,,,
16011.31,-0.0004,58.1,,,,,,,
16011.34,-0.00037,60.06,,,,,,,
16011.37,-0.00035,61.81,,,,,,,
16011.39,-0.00032,63.29,,,,,,,
16011.42,-0.0003,64.82,,,,,,,
16011.45,-0.00027,66.22,,,,,,,
16011.47,-0.00025,67.69,,,,,,,
20015.93,-0.00021,65.95,,,,,,,
20015.96,-0.00018,68.15,,,,,,,
20015.99,-0.00016,70.11,,,,,,,
20016.02,-0.00013,72.27,,,,,,,
20016.05,-0.0001,74.25,,,,,,,
20016.08,-8e-05,76.3,,,,,,,
20016.11,-5e-05,78.36,,,,,,,
20016.14,-3e-05,80.57,,,,,,,
20016.17,-0.0,82.77,,,,,,,
20016.19,2e-05,85.4,,,,,,,
20016.21,5e-05,87.73,,,,,,,
20016.23,7e-05,89.97,,,,,,,
20016.24,0.0001,92.49,,,,,,,
20016.26,0.00013,95.06,,,,,,,
20016.28,0.00015,97.36,,,,,,,
20016.29,0.00018,99.72,,,,,,,
20016.31,0.0002,102.14,,,,,,,
20016.33,0.00023,104.37,,,,,,,
20016.34,0.00026,106.3,,,,,,,
20016.36,0.00028,108.26,,,,,,,
20016.37,0.00031,110.22,,,,,,,
20016.39,0.00033,111.95,,,,,,,
20016.41,0.00036,113.77,,,,,,,
20016.43,0.00039,115.32,,,,,,,
20016.44,0.00041,116.79,,,,,,,
20016.46,0.00044,118.28,,,,,,,
20016.49,0.00046,119.61,,,,,,,
20016.5,0.00049,120.71,,,,,,,
20016.52,0.00051,121.78,,,,,,,
20016.55,0.00054,122.81,,,,,,,
20016.57,0.00057,123.64,,,,,,,
20016.6,0.00059,124.44,,,,,,,
20016.62,0.00062,125.36,,,,,,,
20016.65,0.00064,126.16,,,,,,,
20016.67,0.00067,126.94,,,,,,,
20016.7,0.00069,127.76,,,,,,,
20016.73,0.00072,128.72,,,,,,,
20016.76,0.00074,129.66,,,,,,,
20016.78,0.00077,130.54,,,,,,,
20016.81,0.0008,131.6,,,,,,,
20016.84,0.00082,132.62,,,,,,,
20016.86,0.00085,133.55,,,,,,,
20016.88,0.00087,134.4,,,,,,,
20016.9,0.0009,135.15,,,,,,,
20016.92,0.00092,135.91,,,,,,,
20016.95,0.00095,136.63,,,,,,,
20016.97,0.00097,137.24,,,,,,,
20017.0,0.001,137.82,,,,,,,
20017.02,0.00102,138.37,,,,,,,
20017.05,0.00105,139.01,,,,,,,
20017.08,0.00108,139.68,,,,,,,
20017.11,0.0011,140.41,,,,,,,
20017.14,0.00113,141.31,,,,,,,
20017.17,0.00115,142.12,,,,,,,
20017.19,0.00118,143.15,,,,,,,
20017.22,0.0012,143.95,,,,,,,
20017.24,0.00123,144.78,,,,,,,
20017.27,0.00125,145.65,,,,,,,
20017.29,0.00128,146.52,,,,,,,
20017.32,0.00131,147.28,,,,,,,
20017.35,0.00133,148.11,,,,,,,
20017.38,0.00136,148.98,,,,,,,
20017.4,0.00138,149.84,,,,,,,
20017.43,0.00141,150.84,,,,,,,
20017.45,0.00143,151.77,,,,,,,
20017.47,0.00146,152.58,,,,,,,
20017.5,0.00148,153.37,,,,,,,
20017.52,0.00151,154.26,,,,,,,
20017.54,0.00153,154.92,,,,,,,
20017.56,0.00156,155.55,,,,,,,
20017.59,0.00158,156.17,,,,,,,
20017.62,0.00161,156.75,,,,,,,
20017.64,0.00164,157.26,,,,,,,
20017.67,0.00166,157.69,,,,,,,
20017.69,0.00169,158.11,,,,,,,
20017.71,0.00171,158.43,,,,,,,
20017.73,0.00174,158.72,,,,,,,
20017.76,0.00176,158.93,,,,,,,
20017.78,0.00179,159.08,,,,,,,
20017.81,0.00181,159.28,,,,,,,
20017.83,0.00184,159.46,,,,,,,
20017.85,0.00186,159.58,,,,,,,
20017.88,0.00189,159.65,,,,,,,
20017.91,0.00191,159.68,,,,,,,
20017.93,0.00194,159.73,,,,,,,
20017.96,0.00197,159.35,,,,,,,
20018.01,0.00199,157.19,,,,,,,
20018.1,0.00197,142.62,,,,,,,
20018.12,0.00194,137.82,,,,,,,
20018.14,0.00191,133.08,,,,,,,
20018.16,0.00189,128.49,,,,,,,
20018.18,0.00186,123.99,,,,,,,
20018.2,0.00184,120.08,,,,,,,
20018.22,0.00181,116.25,,,,,,,
20018.24,0.00178,112.62,,,,,,,
20018.26,0.00176,108.69,,,,,,,
20018.28,0.00173,105.16,,,,,,,
20018.3,0.00171,101.51,,,,,,,
20018.32,0.00168,98.08,,,,,,,
20018.35,0.00166,94.58,,,,,,,
20018.37,0.00163,91.15,,,,,,,
20018.4,0.00161,87.65,,,,,,,
20018.42,0.00158,84.7,,,,,,,
20018.44,0.00156,81.62,,,,,,,
20018.47,0.00153,78.11,,,,,,,
20018.51,0.0015,74.42,,,,,,,
20018.53,0.00148,71.2,,,,,,,
20018.56,0.00145,68.0,,,,,,,
20018.59,0.00143,64.38,,,,,,,
20018.62,0.0014,60.92,,,,,,,
20018.65,0.00138,57.27,,,,,,,
20018.68,0.00135,53.74,,,,,,,
20018.71,0.00132,50.21,,,,,,,
20018.74,0.0013,47.17,,,,,,,
20018.76,0.00127,44.37,,,,,,,
20018.79,0.00125,40.59,,,,,,,
20018.82,0.00122,37.11,,,,,,,
20018.85,0.0012,34.08,,,,,,,
20018.87,0.00117,31.18,,,,,,,
20018.9,0.00115,28.15,,,,,,,
20018.92,0.00112,25.15,,,,,,,
20018.95,0.0011,21.75,,,,,,,
20018.98,0.00107,18.0,,,,,,,
20019.01,0.00105,14.53,,,,,,,
20019.04,0.00102,11.1,,,,,,,
20019.08,0.00099,7.34,,,,,,,
20019.1,0.00097,4.28,,,,,,,
20019.12,0.00094,1.53,,,,,,,
20019.15,0.00092,-1.13,,,,,,,
20019.17,0.00089,-4.04,,,,,,,
20019.19,0.00087,-6.71,,,,,,,
20019.22,0.00084,-9.26,,,,,,,
20019.25,0.00082,-12.03,,,,,,,
20019.28,0.00079,-14.77,,,,,,,
20019.33,0.00077,-16.77,,,,,,,
20019.44,0.00074,-18.66,,,,,,,
20019.48,0.00072,-21.05,,,,,,,
20019.52,0.00069,-23.59,,,,,,,
20019.55,0.00066,-25.94,,,,,,,
20019.58,0.00064,-28.22,,,,,,,
20019.61,0.00061,-30.33,,,,,,,
20019.65,0.00059,-33.03,,,,,,,
20019.68,0.00056,-36.05,,,,,,,
20019.7,0.00053,-39.02,,,,,,,
20019.72,0.00051,-42.15,,,,,,,
20019.74,0.00048,-45.61,,,,,,,
20019.75,0.00046,-48.78,,,,,,,
20019.77,0.00043,-51.48,,,,,,,
20019.78,0.0004,-54.17,,,,,,,
20019.79,0.00038,-56.63,,,,,,,
20019.81,0.00035,-59.46,,,,,,,
20019.82,0.00034,-61.13,,,,,,,
20019.82,0.00033,-62.02,,,,,,,
20019.84,0.0003,-64.54,,,,,,,
20019.85,0.00027,-66.98,,,,,,,
20019.86,0.00025,-69.46,,,,,,,
20019.88,0.00022,-71.79,,,,,,,
20019.9,0.0002,-74.24,,,,,,,
20019.91,0.00017,-76.44,,,,,,,
20019.93,0.00014,-78.57,,,,,,,
20019.94,0.00012,-80.58,,,,,,,
20019.96,9e-05,-82.89,,,,,,,
20019.98,7e-05,-85.07,,,,,,,
20020.0,4e-05,-87.18,,,,,,,
20020.02,2e-05,-89.03,,,,,,,
20020.04,-1e-05,-91.1,,,,,,,
20020.06,-4e-05,-92.69,,,,,,,
20020.08,-6e-05,-94.29,,,,,,,
20020.1,-9e-05,-95.84,,,,,,,
20020.13,-0.00011,-97.47,,,,,,,
20020.15,-0.00014,-98.84,,,,,,,
20020.18,-0.00016,-100.1,,,,,,,
20020.2,-0.00019,-101.3,,,,,,,
20020.22,-0.00021,-102.58,,,,,,,
20020.25,-0.00024,-104.02,,,,,,,
20020.28,-0.00027,-105.66,,,,,,,
20020.31,-0.00029,-107.01,,,,,,,
20020.34,-0.00032,-108.31,,,,,,,
20020.37,-0.00034,-109.74,,,,,,,
20020.39,-0.00037,-111.18,,,,,,,
20020.42,-0.00039,-112.72,,,,,,,
20020.45,-0.00042,-114.18,,,,,,,
20020.47,-0.00044,-115.53,,,,,,,
20020.49,-0.00047,-116.86,,,,,,,
20020.51,-0.0005,-118.12,,,,,,,
20020.53,-0.00052,-119.17,,,,,,,
20020.56,-0.00055,-120.3,,,,,,,
20020.58,-0.00057,-121.44,,,,,,,
20020.61,-0.0006,-122.5,,,,,,,
20020.63,-0.00062,-123.53,,,,,,,
20020.66,-0.00065,-124.45,,,,,,,
20020.69,-0.00067,-125.62,,,,,,,
20020.72,-0.0007,-126.9,,,,,,,
20020.75,-0.00073,-127.98,,,,,,,
20020.77,-0.00075,-129.01,,,,,,,
20020.79,-0.00078,-130.03,,,,,,,
20020.82,-0.0008,-131.18,,,,,,,
20020.85,-0.00083,-132.16,,,,,,,
20020.87,-0.00085,-133.2,,,,,,,
20020.9,-0.00088,-134.27,,,,,,,
20020.92,-0.0009,-135.25,,,,,,,
20020.94,-0.00093,-136.16,,,,,,,
20020.97,-0.00096,-137.08,,,,,,,
20021.0,-0.00098,-138.25,,,,,,,
20021.03,-0.00101,-139.21,,,,,,,
20021.05,-0.00103,-140.17,,,,,,,
20021.08,-0.00106,-141.1,,,,,,,
20021.1,-0.00108,-142.04,,,,,,,
20021.13,-0.00111,-143.04,,,,,,,
20021.16,-0.00113,-144.08,,,,,,,
20021.18,-0.00116,-144.91,,,,,,,
20021.2,-0.00118,-145.94,,,,,,,
20021.23,-0.00121,-146.94,,,,,,,
20021.26,-0.00124,-147.98,,,,,,,
20021.28,-0.00126,-148.84,,,,,,,
20021.3,-0.00129,-149.7,,,,,,,
20021.33,-0.00131,-150.53,,,,,,,
20021.35,-0.00134,-151.26,,,,,,,
20021.38,-0.00136,-152.0,,,,,,,
20021.4,-0.00139,-152.63,,,,,,,
20021.42,-0.00141,-153.26,,,,,,,
20021.45,-0.00144,-153.98,,,,,,,
20021.47,-0.00147,-154.57,,,,,,,
20021.5,-0.00149,-155.12,,,,,,,
20021.52,-0.00152,-155.61,,,,,,,
20021.55,-0.00154,-156.13,,,,,,,
20021.58,-0.00157,-156.57,,,,,,,
20021.6,-0.00159,-157.1,,,,,,,
20021.63,-0.00162,-157.62,,,,,,,
20021.66,-0.00164,-158.21,,,,,,,
20021.68,-0.00167,-158.78,,,,,,,
20021.71,-0.00169,-159.46,,,,,,,
20021.73,-0.00172,-160.18,,,,,,,
20021.75,-0.00175,-160.79,,,,,,,
20021.78,-0.00177,-161.39,,,,,,,
20021.8,-0.0018,-161.84,,,,,,,
20021.82,-0.00182,-162.26,,,,,,,
20021.85,-0.00185,-162.6,,,,,,,
20021.87,-0.00187,-162.86,,,,,,,
20021.9,-0.0019,-163.02,,,,,,,
20021.92,-0.00192,-163.24,,,,,,,
20021.95,-0.00195,-163.26,,,,,,,
20021.98,-0.00198,-162.55,,,,,,,
20022.12,-0.00195,-143.05,,,,,,,
20022.14,-0.00192,-137.77,,,,,,,
20022.16,-0.0019,-132.88,,,,,,,
20022.18,-0.00187,-128.51,,,,,,,
20022.2,-0.00185,-124.26,,,,,,,
20022.22,-0.00182,-119.84,,,,,,,
20022.24,-0.0018,-115.72,,,,,,,
20022.26,-0.00177,-111.69,,,,,,,
20022.28,-0.00175,-107.73,,,,,,,
20022.3,-0.00172,-103.91,,,,,,,
20022.32,-0.0017,-99.84,,,,,,,
20022.35,-0.00167,-96.32,,,,,,,
20022.37,-0.00164,-92.58,,,,,,,
20022.39,-0.00162,-88.93,,,,,,,
20022.42,-0.00159,-85.25,,,,,,,
20022.45,-0.00157,-81.52,,,,,,,
20022.47,-0.00154,-78.13,,,,,,,
20022.5,-0.00152,-74.54,,,,,,,
20022.53,-0.00149,-70.93,,,,,,,
20022.56,-0.00147,-67.35,,,,,,,
20022.58,-0.00144,-63.76,,,,,,,
20022.61,-0.00142,-60.26,,,,,,,
20022.64,-0.00139,-56.7,,,,,,,
20022.67,-0.00136,-53.18,,,,,,,
20022.7,-0.00134,-49.52,,,,,,,
20022.72,-0.00131,-46.23,,,,,,,
20022.75,-0.00129,-42.76,,,,,,,
20022.78,-0.00126,-39.24,,,,,,,
20022.8,-0.00124,-35.96,,,,,,,
20022.83,-0.00121,-32.59,,,,,,,
20022.85,-0.00119,-29.5,,,,,,,
20022.88,-0.00116,-26.64,,,,,,,
20022.9,-0.00113,-23.43,,,,,,,
20022.93,-0.00111,-20.54,,,,,,,
20022.95,-0.00108,-17.61,,,,,,,
20022.98,-0.00106,-14.78,,,,,,,
20023.01,-0.00103,-11.65,,,,,,,
20023.04,-0.00101,-8.87,,,,,,,
20023.06,-0.00098,-5.84,,,,,,,
20023.09,-0.00096,-2.74,,,,,,,
20023.12,-0.00093,0.13,,,,,,,
20023.15,-0.0009,3.07,,,,,,,
20023.17,-0.00088,5.94,,,,,,,
20023.2,-0.00085,8.91,,,,,,,
20023.23,-0.00083,11.73,,,,,,,
20023.26,-0.0008,14.61,,,,,,,
20023.28,-0.00078,17.39,,,,,,,
20023.31,-0.00075,20.33,,,,,,,
20023.34,-0.00073,23.08,,,,,,,
20023.37,-0.0007,25.31,,,,,,,
20023.42,-0.00068,27.48,,,,,,,
20023.46,-0.00065,29.7,,,,,,,
20023.51,-0.00063,32.21,,,,,,,
20023.55,-0.0006,34.44,,,,,,,
20023.59,-0.00058,36.8,,,,,,,
20023.61,-0.00055,40.26,,,,,,,
20023.63,-0.00052,43.27,,,,,,,
20023.65,-0.0005,45.74,,,,,,,
20023.66,-0.00047,48.41,,,,,,,
20023.68,-0.00045,50.82,,,,,,,
20023.7,-0.00042,53.25,,,,,,,
20023.72,-0.0004,55.6,,,,,,,
20023.75,-0.00037,57.8,,,,,,,
20023.78,-0.00035,59.99,,,,,,,
20023.81,-0.00032,62.08,,,,,,,
20023.84,-0.00029,64.15,,,,,,,
20023.88,-0.00027,66.3,,,,,,,
