time,strain,stress,temperature,type,strain_rate,max_strain,title,youngs,poissons
0.0,3e-05,2.96,950,fatigue,0.001,0.00201,43-20,144000,0.3
0.04,5e-05,6.75,,,,,,,
0.08,8e-05,10.85,,,,,,,
0.12,0.0001,15.02,,,,,,,
0.15,0.00013,19.12,,,,,,,
0.19,0.00015,22.25,,,,,,,
0.26,0.00018,25.7,,,,,,,
0.3,0.0002,28.23,,,,,,,
0.34,0.00023,31.5,,,,,,,
0.37,0.00026,35.23,,,,,,,
0.39,0.00028,39.11,,,,,,,
0.41,0.00031,42.69,,,,,,,
0.42,0.00033,46.17,,,,,,,
0.44,0.00036,49.78,,,,,,,
0.46,0.00038,53.21,,,,,,,
0.49,0.00041,56.75,,,,,,,
0.52,0.00044,60.29,,,,,,,
0.55,0.00046,64.11,,,,,,,
0.58,0.00049,67.01,,,,,,,
0.62,0.00051,70.3,,,,,,,
0.65,0.00054,73.75,,,,,,,
0.69,0.00056,77.54,,,,,,,
0.72,0.00059,80.83,,,,,,,
0.75,0.00061,84.0,,,,,,,
0.78,0.00064,87.14,,,,,,,
0.8,0.00066,90.94,,,,,,,
0.82,0.00069,94.59,,,,,,,
0.84,0.00072,98.25,,,,,,,
0.86,0.00074,102.02,,,,,,,
0.88,0.00077,105.73,,,,,,,
0.9,0.00079,109.29,,,,,,,
0.92,0.00082,112.62,,,,,,,
0.93,0.00085,116.0,,,,,,,
0.95,0.00087,119.03,,,,,,,
0.97,0.0009,122.31,,,,,,,
0.98,0.00092,125.21,,,,,,,
1.0,0.00095,128.18,,,,,,,
1.02,0.00098,131.33,,,,,,,
1.04,0.001,134.15,,,,,,,
1.08,0.00103,140.17,,,,,,,
1.11,0.00105,143.54,,,,,,,
1.13,0.00108,146.82,,,,,,,
1.15,0.0011,149.68,,,,,,,
1.17,0.00113,152.65,,,,,,,
1.19,0.00115,155.44,,,,,,,
1.21,0.00118,158.15,,,,,,,
1.24,0.00121,160.69,,,,,,,
1.26,0.00123,162.59,,,,,,,
1.27,0.00126,163.07,,,,,,,
1.28,0.00129,163.03,,,,,,,
1.28,0.00132,163.08,,,,,,,
1.28,0.00134,163.14,,,,,,,
1.29,0.00137,163.27,,,,,,,
1.29,0.0014,163.4,,,,,,,
1.29,0.00143,163.58,,,,,,,
1.3,0.00146,163.7,,,,,,,
1.3,0.00148,163.81,,,,,,,
1.31,0.00151,163.89,,,,,,,
1.32,0.00154,163.88,,,,,,,
1.34,0.00156,163.19,,,,,,,
1.43,0.00154,153.85,,,,,,,
1.46,0.00151,149.1,,,,,,,
1.49,0.00148,144.44,,,,,,,
1.52,0.00146,140.5,,,,,,,
1.54,0.00143,136.73,,,,,,,
1.56,0.00141,132.87,,,,,,,
1.59,0.00138,128.89,,,,,,,
1.62,0.00136,124.7,,,,,,,
1.65,0.00133,120.41,,,,,,,
1.67,0.00131,116.47,,,,,,,
1.7,0.00128,112.9,,,,,,,
1.72,0.00126,109.56,,,,,,,
1.74,0.00123,106.25,,,,,,,
1.77,0.0012,102.91,,,,,,,
1.79,0.00118,99.77,,,,,,,
1.82,0.00115,96.33,,,,,,,
1.85,0.00113,92.9,,,,,,,
1.88,0.0011,89.6,,,,,,,
1.91,0.00108,86.17,,,,,,,
1.94,0.00105,82.67,,,,,,,
1.97,0.00103,79.01,,,,,,,
2.0,0.001,75.45,,,,,,,
2.02,0.00097,72.09,,,,,,,
2.05,0.00095,68.49,,,,,,,
2.08,0.00092,65.02,,,,,,,
2.11,0.0009,61.38,,,,,,,
2.14,0.00087,57.77,,,,,,,
2.17,0.00085,54.28,,,,,,,
2.19,0.00082,50.44,,,,,,,
2.22,0.0008,46.65,,,,,,,
2.25,0.00077,42.87,,,,,,,
2.28,0.00075,39.07,,,,,,,
2.31,0.00072,35.72,,,,,,,
2.33,0.0007,32.73,,,,,,,
2.35,0.00067,29.49,,,,,,,
2.38,0.00064,26.25,,,,,,,
2.4,0.00062,23.12,,,,,,,
2.43,0.00059,19.79,,,,,,,
2.46,0.00057,16.46,,,,,,,
2.49,0.00054,13.36,,,,,,,
2.51,0.00052,10.08,,,,,,,
2.54,0.00049,6.35,,,,,,,
2.58,0.00047,2.82,,,,,,,
2.6,0.00044,-0.55,,,,,,,
2.63,0.00041,-3.87,,,,,,,
2.66,0.00039,-7.0,,,,,,,
2.68,0.00036,-10.14,,,,,,,
2.71,0.00034,-13.21,,,,,,,
2.74,0.00031,-16.57,,,,,,,
2.78,0.00029,-19.02,,,,,,,
2.9,0.00026,-21.55,,,,,,,
2.94,0.00024,-24.78,,,,,,,
2.98,0.00021,-28.05,,,,,,,
3.02,0.00019,-31.58,,,,,,,
3.06,0.00016,-35.09,,,,,,,
3.08,0.00013,-39.75,,,,,,,
3.1,0.00011,-43.35,,,,,,,
3.11,8e-05,-46.83,,,,,,,
3.13,6e-05,-50.2,,,,,,,
3.14,3e-05,-53.28,,,,,,,
3.16,1e-05,-56.64,,,,,,,
3.18,-2e-05,-60.2,,,,,,,
3.2,-4e-05,-63.21,,,,,,,
3.22,-7e-05,-66.43,,,,,,,
3.25,-9e-05,-69.6,,,,,,,
3.27,-0.00012,-73.16,,,,,,,
3.29,-0.00014,-76.73,,,,,,,
3.31,-0.00017,-80.1,,,,,,,
3.32,-0.0002,-83.71,,,,,,,
3.34,-0.00022,-86.87,,,,,,,
3.36,-0.00025,-90.2,,,,,,,
3.37,-0.00027,-93.48,,,,,,,
3.39,-0.0003,-96.73,,,,,,,
3.41,-0.00032,-99.85,,,,,,,
3.42,-0.00035,-102.77,,,,,,,
3.44,-0.00038,-105.85,,,,,,,
3.46,-0.0004,-108.92,,,,,,,
3.48,-0.00043,-112.06,,,,,,,
3.5,-0.00045,-115.04,,,,,,,
3.52,-0.00048,-118.19,,,,,,,
3.55,-0.0005,-121.3,,,,,,,
3.57,-0.00053,-124.38,,,,,,,
3.6,-0.00056,-127.48,,,,,,,
3.63,-0.00058,-130.61,,,,,,,
3.65,-0.00061,-133.33,,,,,,,
3.67,-0.00063,-135.82,,,,,,,
3.69,-0.00066,-138.45,,,,,,,
3.72,-0.00068,-140.79,,,,,,,
3.74,-0.00071,-142.69,,,,,,,
3.76,-0.00073,-144.53,,,,,,,
3.77,-0.00076,-145.79,,,,,,,
3.79,-0.00079,-146.72,,,,,,,
3.8,-0.00081,-147.29,,,,,,,
3.8,-0.00084,-147.79,,,,,,,
3.82,-0.00086,-148.48,,,,,,,
3.83,-0.00089,-148.88,,,,,,,
3.84,-0.00092,-149.14,,,,,,,
3.85,-0.00094,-149.39,,,,,,,
3.88,-0.00097,-149.48,,,,,,,
3.98,-0.00099,-148.05,,,,,,,
4.05,-0.00102,-149.83,,,,,,,
4.09,-0.00104,-152.17,,,,,,,
4.12,-0.00107,-154.79,,,,,,,
4.15,-0.00109,-157.19,,,,,,,
4.17,-0.00112,-159.61,,,,,,,
4.2,-0.00114,-161.94,,,,,,,
4.22,-0.00117,-164.15,,,,,,,
4.24,-0.0012,-163.69,,,,,,,
4.24,-0.00123,-163.94,,,,,,,
4.25,-0.00125,-164.04,,,,,,,
4.25,-0.00129,-164.14,,,,,,,
4.25,-0.00133,-164.31,,,,,,,
4.25,-0.00136,-164.43,,,,,,,
4.25,-0.00139,-164.6,,,,,,,
4.27,-0.00141,-165.41,,,,,,,
4.28,-0.00144,-165.61,,,,,,,
4.29,-0.00147,-165.43,,,,,,,
4.49,-0.00144,-149.01,,,,,,,
4.54,-0.00142,-143.75,,,,,,,
4.57,-0.00139,-138.55,,,,,,,
4.6,-0.00137,-134.4,,,,,,,
4.62,-0.00134,-130.62,,,,,,,
4.65,-0.00131,-126.61,,,,,,,
4.67,-0.00129,-122.52,,,,,,,
4.7,-0.00126,-118.69,,,,,,,
4.72,-0.00124,-114.81,,,,,,,
4.75,-0.00121,-111.14,,,,,,,
4.77,-0.00119,-107.55,,,,,,,
4.8,-0.00116,-103.81,,,,,,,
4.82,-0.00114,-99.98,,,,,,,
4.85,-0.00111,-96.22,,,,,,,
4.88,-0.00109,-92.57,,,,,,,
4.91,-0.00106,-88.98,,,,,,,
4.93,-0.00103,-85.65,,,,,,,
4.96,-0.00101,-82.34,,,,,,,
4.98,-0.00098,-78.98,,,,,,,
5.01,-0.00096,-75.28,,,,,,,
5.04,-0.00093,-71.65,,,,,,,
5.07,-0.00091,-67.87,,,,,,,
5.1,-0.00088,-64.22,,,,,,,
5.13,-0.00086,-60.55,,,,,,,
5.16,-0.00083,-56.97,,,,,,,
5.18,-0.00081,-53.56,,,,,,,
5.21,-0.00078,-50.32,,,,,,,
5.23,-0.00075,-47.05,,,,,,,
5.26,-0.00073,-43.56,,,,,,,
5.29,-0.0007,-40.36,,,,,,,
5.31,-0.00068,-37.18,,,,,,,
5.34,-0.00065,-33.62,,,,,,,
5.37,-0.00063,-30.26,,,,,,,
5.4,-0.0006,-26.62,,,,,,,
5.43,-0.00058,-23.2,,,,,,,
5.45,-0.00055,-20.1,,,,,,,
5.48,-0.00053,-16.77,,,,,,,
5.51,-0.0005,-13.2,,,,,,,
5.54,-0.00047,-9.57,,,,,,,
5.57,-0.00045,-5.87,,,,,,,
5.6,-0.00042,-2.35,,,,,,,
5.63,-0.0004,1.4,,,,,,,
5.65,-0.00037,4.81,,,,,,,
5.68,-0.00035,7.97,,,,,,,
5.7,-0.00032,11.25,,,,,,,
5.73,-0.0003,14.41,,,,,,,
5.76,-0.00027,17.77,,,,,,,
5.79,-0.00025,21.53,,,,,,,
5.82,-0.00022,24.88,,,,,,,
5.86,-0.0002,27.94,,,,,,,
5.93,-0.00017,32.05,,,,,,,
5.98,-0.00015,35.67,,,,,,,
6.02,-0.00012,39.17,,,,,,,
6.04,-9e-05,42.45,,,,,,,
6.07,-7e-05,45.6,,,,,,,
6.09,-4e-05,48.61,,,,,,,
6.11,-2e-05,52.12,,,,,,,
6.13,1e-05,55.31,,,,,,,
6.15,3e-05,58.74,,,,,,,
6.17,6e-05,61.79,,,,,,,
6.2,8e-05,64.98,,,,,,,
6.22,0.00011,68.12,,,,,,,
6.25,0.00013,71.11,,,,,,,
6.29,0.00016,74.42,,,,,,,
6.32,0.00019,77.48,,,,,,,
6.35,0.00021,80.31,,,,,,,
6.39,0.00024,83.19,,,,,,,
6.42,0.00026,86.33,,,,,,,
6.45,0.00029,89.42,,,,,,,
6.48,0.00031,92.73,,,,,,,
6.5,0.00034,96.28,,,,,,,
6.52,0.00036,99.87,,,,,,,
6.54,0.00039,103.32,,,,,,,
6.56,0.00042,106.73,,,,,,,
6.58,0.00044,110.09,,,,,,,
6.59,0.00047,113.18,,,,,,,
6.61,0.00049,116.42,,,,,,,
6.62,0.00052,119.4,,,,,,,
6.64,0.00055,122.56,,,,,,,
6.66,0.00057,125.55,,,,,,,
6.67,0.0006,128.56,,,,,,,
6.69,0.00062,131.55,,,,,,,
6.71,0.00065,134.3,,,,,,,
6.73,0.00067,137.05,,,,,,,
6.75,0.0007,139.81,,,,,,,
6.77,0.00073,142.55,,,,,,,
6.79,0.00075,145.07,,,,,,,
6.81,0.00078,147.38,,,,,,,
6.83,0.0008,149.61,,,,,,,
6.86,0.00083,151.97,,,,,,,
6.88,0.00086,153.38,,,,,,,
6.89,0.00088,154.03,,,,,,,
6.89,0.00091,154.73,,,,,,,
6.91,0.00093,154.83,,,,,,,
6.91,0.00097,155.23,,,,,,,
6.92,0.00099,155.52,,,,,,,
6.93,0.00102,156.15,,,,,,,
6.95,0.00105,156.59,,,,,,,
6.97,0.00107,156.4,,,,,,,
7.06,0.0011,154.02,,,,,,,
7.14,0.00112,154.64,,,,,,,
7.18,0.00115,156.54,,,,,,,
7.21,0.00117,158.77,,,,,,,
7.24,0.0012,161.1,,,,,,,
7.26,0.00122,163.39,,,,,,,
7.29,0.00125,165.64,,,,,,,
7.31,0.00128,167.58,,,,,,,
7.33,0.0013,169.5,,,,,,,
7.34,0.00133,167.12,,,,,,,
7.34,0.00136,167.31,,,,,,,
7.34,0.0014,167.48,,,,,,,
7.35,0.00144,167.63,,,,,,,
7.35,0.00148,167.81,,,,,,,
7.35,0.00151,168.0,,,,,,,
7.38,0.00154,169.11,,,,,,,
7.45,0.00156,165.37,,,,,,,
7.66,0.00153,149.8,,,,,,,
7.7,0.00151,143.43,,,,,,,
7.73,0.00148,137.97,,,,,,,
7.76,0.00146,133.55,,,,,,,
7.78,0.00143,129.28,,,,,,,
7.8,0.00141,125.0,,,,,,,
7.83,0.00138,120.94,,,,,,,
7.85,0.00136,116.96,,,,,,,
7.87,0.00133,113.06,,,,,,,
7.89,0.00131,109.39,,,,,,,
7.92,0.00128,105.6,,,,,,,
7.94,0.00126,101.87,,,,,,,
7.97,0.00123,98.05,,,,,,,
7.99,0.0012,94.12,,,,,,,
8.02,0.00118,90.39,,,,,,,
8.05,0.00115,86.77,,,,,,,
8.08,0.00113,83.01,,,,,,,
8.1,0.0011,79.44,,,,,,,
8.13,0.00108,75.65,,,,,,,
8.16,0.00105,72.04,,,,,,,
8.19,0.00103,68.36,,,,,,,
8.22,0.001,64.63,,,,,,,
8.25,0.00097,60.97,,,,,,,
8.27,0.00095,57.36,,,,,,,
8.3,0.00092,53.79,,,,,,,
8.33,0.0009,50.12,,,,,,,
8.36,0.00087,46.63,,,,,,,
8.38,0.00085,43.16,,,,,,,
8.41,0.00082,39.54,,,,,,,
8.44,0.0008,35.97,,,,,,,
8.46,0.00077,32.61,,,,,,,
8.49,0.00074,29.07,,,,,,,
8.52,0.00072,25.65,,,,,,,
8.55,0.00069,22.2,,,,,,,
8.57,0.00067,19.04,,,,,,,
8.6,0.00064,15.57,,,,,,,
8.63,0.00062,12.27,,,,,,,
8.66,0.00059,8.84,,,,,,,
8.69,0.00057,5.05,,,,,,,
8.72,0.00054,1.06,,,,,,,
8.75,0.00052,-3.1,,,,,,,
8.79,0.00049,-7.51,,,,,,,
8.82,0.00046,-11.53,,,,,,,
8.84,0.00044,-15.36,,,,,,,
8.87,0.00041,-18.56,,,,,,,
8.91,0.00039,-20.92,,,,,,,
9.03,0.00036,-23.61,,,,,,,
9.07,0.00034,-27.09,,,,,,,
9.11,0.00031,-30.71,,,,,,,
9.15,0.00029,-34.04,,,,,,,
9.18,0.00026,-37.11,,,,,,,
9.21,0.00024,-40.93,,,,,,,
9.23,0.00021,-44.72,,,,,,,
9.25,0.00018,-48.47,,,,,,,
9.27,0.00016,-52.39,,,,,,,
9.28,0.00013,-55.72,,,,,,,
9.3,0.00011,-58.91,,,,,,,
9.31,8e-05,-62.24,,,,,,,
9.33,6e-05,-65.27,,,,,,,
9.34,3e-05,-68.63,,,,,,,
9.36,0.0,-72.11,,,,,,,
9.37,-2e-05,-75.56,,,,,,,
9.39,-5e-05,-78.7,,,,,,,
9.4,-8e-05,-82.04,,,,,,,
9.42,-0.0001,-85.38,,,,,,,
9.43,-0.00013,-88.51,,,,,,,
9.45,-0.00015,-91.58,,,,,,,
9.46,-0.00018,-94.35,,,,,,,
9.48,-0.0002,-96.94,,,,,,,
9.49,-0.00023,-99.57,,,,,,,
9.51,-0.00026,-102.53,,,,,,,
9.53,-0.00028,-105.47,,,,,,,
9.55,-0.00031,-108.14,,,,,,,
9.57,-0.00033,-110.77,,,,,,,
9.6,-0.00036,-113.63,,,,,,,
9.62,-0.00039,-116.15,,,,,,,
9.64,-0.00041,-118.36,,,,,,,
9.66,-0.00044,-120.55,,,,,,,
9.68,-0.00046,-122.64,,,,,,,
9.7,-0.00049,-124.68,,,,,,,
9.73,-0.00051,-126.74,,,,,,,
9.75,-0.00054,-128.72,,,,,,,
9.78,-0.00056,-130.69,,,,,,,
9.8,-0.00059,-132.72,,,,,,,
9.83,-0.00062,-134.58,,,,,,,
9.84,-0.00063,-135.37,,,,,,,
9.86,-0.00064,-136.4,,,,,,,
9.89,-0.00067,-138.45,,,,,,,
9.92,-0.00069,-140.59,,,,,,,
9.95,-0.00072,-142.76,,,,,,,
9.97,-0.00074,-144.86,,,,,,,
10.0,-0.00077,-146.73,,,,,,,
10.02,-0.00079,-148.57,,,,,,,
10.05,-0.00082,-150.54,,,,,,,
10.07,-0.00084,-152.38,,,,,,,
10.1,-0.00087,-154.31,,,,,,,
10.13,-0.0009,-156.33,,,,,,,
10.15,-0.00092,-158.22,,,,,,,
10.18,-0.00095,-160.01,,,,,,,
10.2,-0.00097,-158.56,,,,,,,
10.21,-0.00101,-159.2,,,,,,,
10.21,-0.00104,-159.32,,,,,,,
10.21,-0.00107,-159.44,,,,,,,
10.21,-0.00111,-159.58,,,,,,,
10.22,-0.00114,-159.74,,,,,,,
10.22,-0.00117,-159.94,,,,,,,
10.39,-0.00119,-154.28,,,,,,,
10.46,-0.00122,-154.77,,,,,,,
10.49,-0.00124,-156.37,,,,,,,
10.52,-0.00127,-157.9,,,,,,,
10.54,-0.00129,-159.51,,,,,,,
10.56,-0.00132,-161.5,,,,,,,
10.59,-0.00134,-163.36,,,,,,,
10.61,-0.00137,-165.13,,,,,,,
10.64,-0.0014,-166.89,,,,,,,
10.66,-0.00142,-168.68,,,,,,,
10.69,-0.00145,-170.33,,,,,,,
10.71,-0.00147,-171.77,,,,,,,
10.74,-0.0015,-173.19,,,,,,,
10.77,-0.00152,-173.87,,,,,,,
10.81,-0.00155,-172.78,,,,,,,
10.91,-0.00152,-158.36,,,,,,,
10.93,-0.0015,-153.6,,,,,,,
10.95,-0.00147,-148.88,,,,,,,
10.97,-0.00145,-144.32,,,,,,,
10.99,-0.00142,-140.04,,,,,,,
11.01,-0.0014,-135.77,,,,,,,
11.03,-0.00137,-131.39,,,,,,,
11.05,-0.00135,-127.21,,,,,,,
11.07,-0.00132,-123.04,,,,,,,
11.09,-0.00129,-118.98,,,,,,,
11.11,-0.00127,-114.61,,,,,,,
11.14,-0.00124,-110.69,,,,,,,
11.16,-0.00122,-106.86,,,,,,,
11.18,-0.00119,-103.06,,,,,,,
11.21,-0.00117,-99.17,,,,,,,
11.24,-0.00114,-95.09,,,,,,,
11.26,-0.00111,-91.13,,,,,,,
11.29,-0.00109,-87.21,,,,,,,
11.32,-0.00106,-83.19,,,,,,,
11.35,-0.00104,-79.13,,,,,,,
11.38,-0.00101,-74.75,,,,,,,
11.41,-0.00099,-71.24,,,,,,,
11.43,-0.00096,-67.94,,,,,,,
11.46,-0.00094,-64.43,,,,,,,
11.49,-0.00091,-60.79,,,,,,,
11.51,-0.00088,-57.35,,,,,,,
11.54,-0.00086,-53.74,,,,,,,
11.57,-0.00083,-50.25,,,,,,,
11.6,-0.00081,-46.4,,,,,,,
11.63,-0.00078,-42.5,,,,,,,
11.66,-0.00076,-38.86,,,,,,,
11.68,-0.00073,-35.21,,,,,,,
11.71,-0.00071,-31.68,,,,,,,
11.73,-0.00068,-28.58,,,,,,,
11.76,-0.00066,-25.13,,,,,,,
11.79,-0.00063,-21.61,,,,,,,
11.82,-0.0006,-18.07,,,,,,,
11.84,-0.00058,-14.72,,,,,,,
11.87,-0.00055,-11.22,,,,,,,
11.9,-0.00053,-7.64,,,,,,,
11.93,-0.0005,-4.25,,,,,,,
11.96,-0.00048,-0.79,,,,,,,
11.99,-0.00045,2.82,,,,,,,
12.01,-0.00043,5.94,,,,,,,
12.04,-0.0004,9.14,,,,,,,
12.07,-0.00037,12.33,,,,,,,
12.09,-0.00035,15.81,,,,,,,
12.13,-0.00032,19.41,,,,,,,
12.15,-0.0003,22.61,,,,,,,
12.18,-0.00027,25.45,,,,,,,
12.22,-0.00025,27.82,,,,,,,
12.26,-0.00022,30.17,,,,,,,
26.34,-0.00019,60.63,,,,,,,
26.37,-0.00016,62.99,,,,,,,
26.41,-0.00014,65.48,,,,,,,
26.44,-0.00011,67.58,,,,,,,
26.48,-9e-05,70.06,,,,,,,
26.51,-6e-05,72.23,,,,,,,
26.54,-4e-05,74.39,,,,,,,
26.56,-1e-05,76.59,,,,,,,
26.59,2e-05,78.45,,,,,,,
26.61,4e-05,80.15,,,,,,,
26.63,7e-05,81.93,,,,,,,
26.66,9e-05,84.21,,,,,,,
26.7,0.00012,87.14,,,,,,,
26.72,0.00014,89.78,,,,,,,
26.74,0.00017,92.47,,,,,,,
26.76,0.00019,95.33,,,,,,,
26.78,0.00022,98.03,,,,,,,
26.8,0.00024,100.63,,,,,,,
26.81,0.00027,103.3,,,,,,,
26.83,0.0003,105.77,,,,,,,
26.84,0.00032,108.17,,,,,,,
26.86,0.00035,110.52,,,,,,,
26.88,0.00037,112.9,,,,,,,
26.89,0.0004,114.98,,,,,,,
26.91,0.00043,117.08,,,,,,,
26.93,0.00045,119.14,,,,,,,
26.95,0.00048,121.17,,,,,,,
26.96,0.0005,122.95,,,,,,,
26.98,0.00053,124.8,,,,,,,
27.0,0.00055,126.41,,,,,,,
27.03,0.00058,127.96,,,,,,,
27.05,0.0006,129.38,,,,,,,
27.07,0.00063,130.69,,,,,,,
27.09,0.00065,132.13,,,,,,,
27.12,0.00068,133.51,,,,,,,
27.14,0.0007,134.62,,,,,,,
27.16,0.00073,135.68,,,,,,,
27.19,0.00076,136.77,,,,,,,
27.22,0.00078,137.88,,,,,,,
27.25,0.00081,139.02,,,,,,,
27.27,0.00083,140.21,,,,,,,
27.3,0.00086,141.29,,,,,,,
27.32,0.00088,142.54,,,,,,,
27.34,0.00091,143.54,,,,,,,
27.37,0.00093,144.52,,,,,,,
27.39,0.00096,145.36,,,,,,,
27.41,0.00099,146.3,,,,,,,
27.44,0.00101,147.3,,,,,,,
27.46,0.00104,148.14,,,,,,,
27.49,0.00106,149.02,,,,,,,
27.51,0.00109,149.81,,,,,,,
27.54,0.00111,150.6,,,,,,,
27.57,0.00114,151.45,,,,,,,
27.59,0.00116,152.22,,,,,,,
27.62,0.00119,153.11,,,,,,,
27.64,0.00121,154.06,,,,,,,
27.67,0.00124,154.95,,,,,,,
27.7,0.00126,155.8,,,,,,,
27.72,0.00129,156.62,,,,,,,
27.75,0.00132,157.38,,,,,,,
27.77,0.00134,158.28,,,,,,,
27.79,0.00137,159.02,,,,,,,
27.82,0.00139,159.79,,,,,,,
27.84,0.00142,160.44,,,,,,,
27.86,0.00144,161.12,,,,,,,
27.89,0.00147,161.77,,,,,,,
27.92,0.0015,162.44,,,,,,,
27.94,0.00152,162.97,,,,,,,
27.96,0.00155,163.5,,,,,,,
27.99,0.00157,163.97,,,,,,,
28.01,0.0016,164.43,,,,,,,
28.04,0.00162,164.91,,,,,,,
28.06,0.00165,165.33,,,,,,,
28.09,0.00167,165.69,,,,,,,
28.11,0.0017,166.01,,,,,,,
28.13,0.00172,166.31,,,,,,,
28.16,0.00175,166.56,,,,,,,
28.18,0.00178,166.76,,,,,,,
28.21,0.0018,166.97,,,,,,,
28.24,0.00183,167.22,,,,,,,
28.26,0.00185,167.41,,,,,,,
28.29,0.00188,166.97,,,,,,,
28.43,0.00185,147.86,,,,,,,
28.45,0.00183,142.77,,,,,,,
28.47,0.0018,137.49,,,,,,,
28.49,0.00177,133.01,,,,,,,
28.51,0.00175,128.55,,,,,,,
28.53,0.00172,124.26,,,,,,,
28.55,0.0017,120.36,,,,,,,
28.57,0.00167,116.16,,,,,,,
28.59,0.00165,111.91,,,,,,,
28.62,0.00162,107.79,,,,,,,
28.64,0.00159,103.78,,,,,,,
28.66,0.00157,99.97,,,,,,,
28.69,0.00154,96.2,,,,,,,
28.71,0.00152,92.35,,,,,,,
28.74,0.00149,88.73,,,,,,,
28.77,0.00147,84.83,,,,,,,
28.8,0.00144,80.99,,,,,,,
28.83,0.00142,77.27,,,,,,,
28.85,0.00139,73.62,,,,,,,
28.88,0.00137,69.79,,,,,,,
28.91,0.00134,66.44,,,,,,,
28.94,0.00131,62.66,,,,,,,
28.96,0.00129,59.4,,,,,,,
28.99,0.00126,56.03,,,,,,,
29.02,0.00124,52.2,,,,,,,
29.05,0.00121,47.82,,,,,,,
29.08,0.00119,43.69,,,,,,,
29.11,0.00116,40.05,,,,,,,
29.14,0.00114,36.9,,,,,,,
29.16,0.00111,34.17,,,,,,,
29.17,0.00108,31.78,,,,,,,
29.2,0.00106,28.8,,,,,,,
29.22,0.00103,25.64,,,,,,,
29.25,0.00101,22.66,,,,,,,
29.28,0.00098,19.78,,,,,,,
29.3,0.00096,16.96,,,,,,,
29.33,0.00093,14.2,,,,,,,
29.36,0.00091,11.0,,,,,,,
29.39,0.00088,7.72,,,,,,,
29.42,0.00086,4.62,,,,,,,
29.45,0.00083,1.67,,,,,,,
29.47,0.0008,-1.27,,,,,,,
29.5,0.00078,-4.09,,,,,,,
29.53,0.00075,-7.11,,,,,,,
29.56,0.00073,-10.22,,,,,,,
29.58,0.0007,-13.14,,,,,,,
29.61,0.00068,-15.71,,,,,,,
29.65,0.00065,-17.62,,,,,,,
29.76,0.00063,-18.81,,,,,,,
29.81,0.0006,-21.47,,,,,,,
29.84,0.00058,-24.22,,,,,,,
29.85,0.00058,-24.53,,,,,,,
29.88,0.00055,-27.05,,,,,,,
29.91,0.00053,-29.52,,,,,,,
29.94,0.0005,-32.4,,,,,,,
29.97,0.00048,-35.36,,,,,,,
30.0,0.00045,-38.25,,,,,,,
30.02,0.00042,-41.36,,,,,,,
30.04,0.0004,-44.64,,,,,,,
30.06,0.00037,-48.35,,,,,,,
30.07,0.00035,-51.56,,,,,,,
30.09,0.00032,-54.46,,,,,,,
30.1,0.00029,-57.35,,,,,,,
30.12,0.00027,-60.06,,,,,,,
30.13,0.00024,-62.92,,,,,,,
30.15,0.00022,-65.84,,,,,,,
30.17,0.00019,-68.74,,,,,,,
30.18,0.00016,-71.91,,,,,,,
30.2,0.00014,-74.72,,,,,,,
30.21,0.00011,-77.3,,,,,,,
30.23,9e-05,-79.9,,,,,,,
30.24,6e-05,-82.63,,,,,,,
30.26,3e-05,-85.13,,,,,,,
30.28,1e-05,-87.77,,,,,,,
30.3,-2e-05,-90.07,,,,,,,
30.31,-4e-05,-92.29,,,,,,,
30.33,-7e-05,-94.61,,,,,,,
30.35,-9e-05,-96.74,,,,,,,
30.37,-0.00012,-98.84,,,,,,,
30.4,-0.00014,-100.87,,,,,,,
30.42,-0.00017,-102.79,,,,,,,
30.44,-0.0002,-104.97,,,,,,,
30.47,-0.00022,-106.97,,,,,,,
30.49,-0.00025,-108.64,,,,,,,
30.52,-0.00027,-110.44,,,,,,,
30.54,-0.0003,-112.17,,,,,,,
30.57,-0.00032,-114.02,,,,,,,
30.59,-0.00035,-115.55,,,,,,,
30.62,-0.00037,-117.2,,,,,,,
30.64,-0.0004,-118.98,,,,,,,
30.67,-0.00043,-120.96,,,,,,,
30.7,-0.00045,-122.6,,,,,,,
30.73,-0.00048,-124.32,,,,,,,
30.75,-0.0005,-126.06,,,,,,,
30.78,-0.00053,-127.83,,,,,,,
30.8,-0.00055,-129.55,,,,,,,
30.83,-0.00058,-131.29,,,,,,,
30.86,-0.00061,-133.03,,,,,,,
30.89,-0.00063,-134.78,,,,,,,
30.92,-0.00066,-136.69,,,,,,,
30.95,-0.00068,-138.75,,,,,,,
30.98,-0.00071,-140.81,,,,,,,
31.0,-0.00073,-142.73,,,,,,,
31.03,-0.00076,-144.56,,,,,,,
31.05,-0.00078,-146.3,,,,,,,
31.08,-0.00081,-148.13,,,,,,,
31.1,-0.00083,-150.04,,,,,,,
31.13,-0.00086,-151.77,,,,,,,
31.15,-0.00088,-153.4,,,,,,,
31.17,-0.00091,-154.92,,,,,,,
31.2,-0.00094,-156.31,,,,,,,
31.22,-0.00096,-157.78,,,,,,,
31.24,-0.00099,-159.17,,,,,,,
31.27,-0.00101,-160.46,,,,,,,
31.29,-0.00104,-161.84,,,,,,,
31.31,-0.00106,-162.97,,,,,,,
31.34,-0.00109,-164.14,,,,,,,
31.36,-0.00111,-165.08,,,,,,,
31.38,-0.00114,-166.01,,,,,,,
31.4,-0.00117,-166.83,,,,,,,
31.43,-0.00119,-167.63,,,,,,,
31.45,-0.00122,-168.41,,,,,,,
31.48,-0.00124,-169.03,,,,,,,
31.5,-0.00127,-169.61,,,,,,,
31.52,-0.00129,-170.2,,,,,,,
31.55,-0.00132,-170.74,,,,,,,
31.57,-0.00134,-171.27,,,,,,,
31.6,-0.00137,-171.68,,,,,,,
31.62,-0.00139,-172.1,,,,,,,
31.65,-0.00142,-172.51,,,,,,,
31.67,-0.00145,-172.9,,,,,,,
31.7,-0.00147,-173.22,,,,,,,
31.72,-0.0015,-173.55,,,,,,,
31.75,-0.00152,-173.82,,,,,,,
31.77,-0.00155,-174.06,,,,,,,
31.79,-0.00157,-174.24,,,,,,,
31.82,-0.0016,-174.4,,,,,,,
31.84,-0.00162,-174.53,,,,,,,
31.86,-0.00165,-174.64,,,,,,,
31.89,-0.00167,-174.69,,,,,,,
31.91,-0.0017,-174.68,,,,,,,
31.94,-0.00172,-174.69,,,,,,,
31.96,-0.00175,-174.62,,,,,,,
31.99,-0.00178,-174.63,,,,,,,
32.01,-0.0018,-174.62,,,,,,,
32.03,-0.00183,-174.49,,,,,,,
32.05,-0.00185,-174.39,,,,,,,
32.08,-0.00188,-173.97,,,,,,,
32.11,-0.0019,-172.77,,,,,,,
32.15,-0.00193,-168.85,,,,,,,
32.23,-0.0019,-152.8,,,,,,,
32.25,-0.00188,-145.93,,,,,,,
32.27,-0.00185,-140.19,,,,,,,
32.29,-0.00182,-135.12,,,,,,,
32.31,-0.0018,-130.68,,,,,,,
32.32,-0.00177,-126.55,,,,,,,
32.34,-0.00175,-122.1,,,,,,,
32.35,-0.00172,-117.84,,,,,,,
32.37,-0.0017,-113.75,,,,,,,
32.39,-0.00167,-109.89,,,,,,,
32.4,-0.00164,-106.47,,,,,,,
32.42,-0.00162,-102.73,,,,,,,
32.44,-0.00159,-99.54,,,,,,,
32.45,-0.00157,-96.56,,,,,,,
32.47,-0.00154,-93.63,,,,,,,
32.49,-0.00152,-90.58,,,,,,,
32.51,-0.00149,-87.68,,,,,,,
32.53,-0.00146,-84.83,,,,,,,
32.56,-0.00144,-81.88,,,,,,,
32.58,-0.00141,-79.18,,,,,,,
32.61,-0.00139,-76.4,,,,,,,
32.63,-0.00136,-73.79,,,,,,,
32.66,-0.00134,-71.21,,,,,,,
32.69,-0.00131,-68.54,,,,,,,
32.72,-0.00128,-65.68,,,,,,,
32.75,-0.00126,-62.38,,,,,,,
32.79,-0.00123,-58.92,,,,,,,
32.82,-0.00121,-55.26,,,,,,,
32.86,-0.00118,-51.02,,,,,,,
32.9,-0.00116,-46.75,,,,,,,
32.93,-0.00113,-42.81,,,,,,,
32.96,-0.00111,-39.06,,,,,,,
32.98,-0.00108,-35.24,,,,,,,
33.02,-0.00106,-31.04,,,,,,,
33.05,-0.00103,-26.64,,,,,,,
33.08,-0.00101,-22.61,,,,,,,
33.11,-0.00098,-18.31,,,,,,,
33.13,-0.00095,-14.27,,,,,,,
33.16,-0.00093,-10.59,,,,,,,
33.19,-0.0009,-6.35,,,,,,,
33.22,-0.00088,-2.29,,,,,,,
33.25,-0.00085,1.26,,,,,,,
33.27,-0.00083,4.68,,,,,,,
33.29,-0.0008,7.95,,,,,,,
33.32,-0.00078,11.31,,,,,,,
33.34,-0.00075,14.37,,,,,,,
33.37,-0.00072,17.71,,,,,,,
33.4,-0.0007,21.11,,,,,,,
33.42,-0.00067,24.39,,,,,,,
33.46,-0.00065,27.11,,,,,,,
33.49,-0.00062,29.13,,,,,,,
33.54,-0.0006,31.66,,,,,,,
33.58,-0.00057,34.47,,,,,,,
33.61,-0.00055,37.31,,,,,,,
33.63,-0.00052,40.09,,,,,,,
33.66,-0.00049,43.78,,,,,,,
33.68,-0.00047,46.74,,,,,,,
33.7,-0.00044,49.48,,,,,,,
33.72,-0.00042,51.97,,,,,,,
33.74,-0.00039,54.26,,,,,,,
33.77,-0.00037,56.52,,,,,,,
33.8,-0.00034,58.74,,,,,,,
33.83,-0.00032,61.18,,,,,,,
33.86,-0.00029,63.48,,,,,,,
33.89,-0.00027,65.54,,,,,,,
33.92,-0.00024,67.39,,,,,,,
66.01,-0.00022,78.59,,,,,,,
66.03,-0.0002,80.82,,,,,,,
66.06,-0.00017,83.11,,,,,,,
66.09,-0.00015,85.38,,,,,,,
66.11,-0.00012,87.84,,,,,,,
66.13,-0.0001,90.23,,,,,,,
66.16,-7e-05,92.94,,,,,,,
66.17,-5e-05,95.74,,,,,,,
66.19,-2e-05,98.33,,,,,,,
66.21,1e-05,100.79,,,,,,,
66.22,3e-05,103.21,,,,,,,
66.24,6e-05,105.56,,,,,,,
66.25,8e-05,107.88,,,,,,,
66.27,0.00011,110.12,,,,,,,
66.29,0.00014,112.23,,,,,,,
66.3,0.00016,114.35,,,,,,,
66.32,0.00019,116.25,,,,,,,
66.33,0.00021,117.83,,,,,,,
66.35,0.00024,119.44,,,,,,,
66.37,0.00026,121.12,,,,,,,
66.39,0.00029,122.55,,,,,,,
66.41,0.00032,123.99,,,,,,,
66.43,0.00034,125.17,,,,,,,
66.45,0.00037,126.32,,,,,,,
66.47,0.00039,127.37,,,,,,,
66.5,0.00042,128.46,,,,,,,
66.53,0.00044,129.42,,,,,,,
66.55,0.00047,130.15,,,,,,,
66.57,0.0005,130.97,,,,,,,
66.59,0.00052,131.82,,,,,,,
66.62,0.00055,132.54,,,,,,,
66.65,0.00057,133.41,,,,,,,
66.68,0.0006,134.24,,,,,,,
66.7,0.00062,134.99,,,,,,,
66.73,0.00065,135.93,,,,,,,
66.76,0.00067,136.94,,,,,,,
66.79,0.0007,138.08,,,,,,,
66.82,0.00073,139.2,,,,,,,
66.84,0.00075,140.29,,,,,,,
66.87,0.00078,141.53,,,,,,,
66.9,0.0008,142.73,,,,,,,
66.92,0.00083,143.9,,,,,,,
66.94,0.00085,145.0,,,,,,,
66.97,0.00088,145.97,,,,,,,
66.99,0.00091,146.98,,,,,,,
67.01,0.00093,147.95,,,,,,,
67.03,0.00096,148.8,,,,,,,
67.06,0.00098,149.66,,,,,,,
67.08,0.00101,150.38,,,,,,,
67.1,0.00103,151.01,,,,,,,
67.13,0.00106,151.62,,,,,,,
67.15,0.00108,152.13,,,,,,,
67.18,0.00111,152.64,,,,,,,
67.21,0.00114,153.09,,,,,,,
67.23,0.00116,153.64,,,,,,,
67.25,0.00119,154.1,,,,,,,
67.28,0.00121,154.48,,,,,,,
67.3,0.00124,154.96,,,,,,,
67.33,0.00126,155.33,,,,,,,
67.35,0.00129,155.72,,,,,,,
67.38,0.00131,155.94,,,,,,,
67.4,0.00134,156.24,,,,,,,
67.43,0.00137,156.56,,,,,,,
67.46,0.00139,156.86,,,,,,,
67.48,0.00142,157.15,,,,,,,
67.5,0.00144,157.45,,,,,,,
67.53,0.00147,157.75,,,,,,,
67.56,0.00149,158.12,,,,,,,
67.58,0.00152,158.44,,,,,,,
67.6,0.00154,158.71,,,,,,,
67.63,0.00157,159.02,,,,,,,
67.65,0.00159,159.26,,,,,,,
67.68,0.00162,159.53,,,,,,,
67.7,0.00165,159.71,,,,,,,
67.73,0.00167,159.94,,,,,,,
67.75,0.0017,160.13,,,,,,,
67.78,0.00172,160.26,,,,,,,
67.8,0.00175,160.41,,,,,,,
67.83,0.00177,160.52,,,,,,,
67.85,0.0018,160.66,,,,,,,
67.88,0.00182,160.69,,,,,,,
67.9,0.00185,160.73,,,,,,,
67.93,0.00188,160.82,,,,,,,
67.95,0.0019,160.87,,,,,,,
67.98,0.00193,160.88,,,,,,,
68.0,0.00195,160.9,,,,,,,
68.03,0.00198,160.67,,,,,,,
68.07,0.002,159.02,,,,,,,
68.17,0.00198,142.47,,,,,,,
68.19,0.00195,137.18,,,,,,,
68.21,0.00193,132.3,,,,,,,
68.23,0.0019,127.53,,,,,,,
68.25,0.00187,122.85,,,,,,,
68.27,0.00185,118.51,,,,,,,
68.29,0.00182,114.4,,,,,,,
68.31,0.0018,110.26,,,,,,,
68.33,0.00177,106.17,,,,,,,
68.35,0.00175,102.55,,,,,,,
68.37,0.00172,98.89,,,,,,,
68.39,0.00169,94.98,,,,,,,
68.41,0.00167,91.19,,,,,,,
68.44,0.00164,87.44,,,,,,,
68.47,0.00162,83.58,,,,,,,
68.49,0.00159,79.65,,,,,,,
68.52,0.00157,76.08,,,,,,,
68.55,0.00154,72.19,,,,,,,
68.58,0.00152,68.79,,,,,,,
68.6,0.00149,65.42,,,,,,,
68.63,0.00147,61.84,,,,,,,
68.66,0.00144,58.14,,,,,,,
68.69,0.00142,54.66,,,,,,,
68.71,0.00139,51.23,,,,,,,
68.74,0.00136,47.82,,,,,,,
68.77,0.00134,44.44,,,,,,,
68.8,0.00131,40.84,,,,,,,
68.82,0.00129,37.47,,,,,,,
68.85,0.00126,34.15,,,,,,,
68.88,0.00124,30.94,,,,,,,
68.91,0.00121,27.51,,,,,,,
68.93,0.00119,24.28,,,,,,,
68.96,0.00116,21.01,,,,,,,
68.99,0.00113,17.64,,,,,,,
69.01,0.00111,14.51,,,,,,,
69.04,0.00108,11.3,,,,,,,
69.07,0.00106,8.4,,,,,,,
69.09,0.00103,5.4,,,,,,,
69.12,0.00101,2.58,,,,,,,
69.14,0.00098,-0.26,,,,,,,
69.17,0.00096,-3.13,,,,,,,
69.19,0.00093,-5.9,,,,,,,
69.22,0.00091,-8.63,,,,,,,
69.25,0.00088,-11.34,,,,,,,
69.28,0.00086,-13.95,,,,,,,
69.31,0.00083,-16.32,,,,,,,
69.36,0.0008,-17.43,,,,,,,
69.48,0.00078,-20.13,,,,,,,
69.51,0.00075,-22.66,,,,,,,
69.54,0.00073,-25.27,,,,,,,
69.57,0.0007,-27.65,,,,,,,
69.6,0.00068,-29.86,,,,,,,
69.63,0.00065,-32.5,,,,,,,
69.66,0.00063,-34.86,,,,,,,
69.69,0.0006,-37.67,,,,,,,
69.71,0.00058,-40.51,,,,,,,
69.73,0.00055,-43.35,,,,,,,
69.75,0.00052,-46.61,,,,,,,
69.76,0.0005,-49.62,,,,,,,
69.77,0.00047,-52.37,,,,,,,
69.79,0.00044,-55.07,,,,,,,
69.81,0.00042,-57.74,,,,,,,
69.82,0.00039,-60.57,,,,,,,
69.84,0.00037,-63.45,,,,,,,
69.84,0.00037,-63.8,,,,,,,
69.86,0.00034,-66.15,,,,,,,
69.87,0.00032,-68.86,,,,,,,
69.89,0.00029,-72.02,,,,,,,
69.91,0.00027,-74.56,,,,,,,
69.92,0.00024,-77.04,,,,,,,
69.94,0.00021,-79.4,,,,,,,
69.95,0.00019,-81.72,,,,,,,
69.97,0.00016,-83.99,,,,,,,
69.99,0.00014,-86.19,,,,,,,
70.01,0.00011,-88.35,,,,,,,
70.03,8e-05,-90.44,,,,,,,
70.05,6e-05,-92.6,,,,,,,
70.07,3e-05,-94.62,,,,,,,
70.09,1e-05,-96.62,,,,,,,
70.11,-2e-05,-98.39,,,,,,,
70.13,-4e-05,-99.91,,,,,,,
70.15,-7e-05,-101.44,,,,,,,
70.17,-9e-05,-102.91,,,,,,,
70.2,-0.00012,-104.32,,,,,,,
70.22,-0.00014,-105.59,,,,,,,
70.24,-0.00017,-106.79,,,,,,,
70.27,-0.0002,-107.95,,,,,,,
70.29,-0.00022,-109.02,,,,,,,
70.32,-0.00025,-110.32,,,,,,,
70.35,-0.00027,-111.59,,,,,,,
70.38,-0.0003,-112.68,,,,,,,
70.41,-0.00032,-113.9,,,,,,,
70.44,-0.00035,-115.23,,,,,,,
70.46,-0.00038,-116.64,,,,,,,
70.49,-0.0004,-118.01,,,,,,,
70.52,-0.00043,-119.66,,,,,,,
70.55,-0.00045,-121.23,,,,,,,
70.58,-0.00048,-122.73,,,,,,,
70.6,-0.0005,-124.22,,,,,,,
70.63,-0.00053,-125.76,,,,,,,
70.65,-0.00055,-127.37,,,,,,,
70.68,-0.00058,-128.97,,,,,,,
70.7,-0.00061,-130.26,,,,,,,
70.73,-0.00063,-131.5,,,,,,,
70.75,-0.00066,-132.66,,,,,,,
70.77,-0.00068,-133.94,,,,,,,
70.8,-0.00071,-135.08,,,,,,,
70.82,-0.00073,-136.29,,,,,,,
70.85,-0.00076,-137.47,,,,,,,
70.88,-0.00078,-138.57,,,,,,,
70.9,-0.00081,-139.56,,,,,,,
70.93,-0.00083,-140.62,,,,,,,
70.95,-0.00086,-141.66,,,,,,,
70.98,-0.00089,-142.73,,,,,,,
71.0,-0.00091,-143.74,,,,,,,
71.02,-0.00094,-144.59,,,,,,,
71.05,-0.00096,-145.62,,,,,,,
71.08,-0.00099,-146.67,,,,,,,
71.1,-0.00101,-147.53,,,,,,,
71.13,-0.00104,-148.36,,,,,,,
71.15,-0.00106,-149.3,,,,,,,
71.18,-0.00109,-150.14,,,,,,,
71.2,-0.00112,-150.83,,,,,,,
71.22,-0.00114,-151.63,,,,,,,
71.25,-0.00117,-152.37,,,,,,,
71.28,-0.00119,-153.24,,,,,,,
71.3,-0.00122,-153.99,,,,,,,
71.33,-0.00124,-154.71,,,,,,,
71.36,-0.00127,-155.54,,,,,,,
71.38,-0.00129,-156.31,,,,,,,
71.41,-0.00132,-156.99,,,,,,,
71.43,-0.00135,-157.72,,,,,,,
71.46,-0.00137,-158.46,,,,,,,
71.48,-0.0014,-159.27,,,,,,,
71.51,-0.00142,-159.92,,,,,,,
71.53,-0.00145,-160.53,,,,,,,
71.55,-0.00147,-161.16,,,,,,,
71.57,-0.0015,-161.68,,,,,,,
71.6,-0.00152,-162.16,,,,,,,
71.62,-0.00155,-162.54,,,,,,,
71.64,-0.00158,-162.83,,,,,,,
71.67,-0.0016,-163.13,,,,,,,
71.69,-0.00163,-163.36,,,,,,,
71.72,-0.00165,-163.58,,,,,,,
71.75,-0.00168,-163.77,,,,,,,
71.77,-0.0017,-164.0,,,,,,,
71.8,-0.00173,-164.24,,,,,,,
71.83,-0.00175,-164.49,,,,,,,
71.85,-0.00178,-164.74,,,,,,,
71.88,-0.00181,-164.96,,,,,,,
71.9,-0.00183,-165.24,,,,,,,
71.92,-0.00186,-165.46,,,,,,,
71.95,-0.00188,-165.72,,,,,,,
71.97,-0.00191,-165.87,,,,,,,
71.99,-0.00193,-165.99,,,,,,,
72.02,-0.00196,-165.99,,,,,,,
72.05,-0.00198,-165.5,,,,,,,
72.08,-0.00201,-163.8,,,,,,,
72.18,-0.00198,-146.15,,,,,,,
72.2,-0.00196,-140.5,,,,,,,
72.22,-0.00193,-135.32,,,,,,,
72.24,-0.00191,-130.52,,,,,,,
72.26,-0.00188,-125.67,,,,,,,
72.28,-0.00185,-121.3,,,,,,,
72.29,-0.00183,-117.07,,,,,,,
72.31,-0.0018,-112.48,,,,,,,
72.33,-0.00178,-108.48,,,,,,,
72.35,-0.00175,-104.6,,,,,,,
72.37,-0.00173,-100.98,,,,,,,
72.39,-0.0017,-97.4,,,,,,,
72.41,-0.00167,-93.41,,,,,,,
72.43,-0.00165,-89.88,,,,,,,
72.46,-0.00162,-86.28,,,,,,,
72.48,-0.0016,-82.9,,,,,,,
72.51,-0.00157,-79.14,,,,,,,
72.54,-0.00155,-75.44,,,,,,,
72.57,-0.00152,-71.52,,,,,,,
72.59,-0.0015,-68.02,,,,,,,
72.62,-0.00147,-64.85,,,,,,,
72.64,-0.00144,-61.51,,,,,,,
72.67,-0.00142,-57.68,,,,,,,
72.7,-0.00139,-53.88,,,,,,,
72.73,-0.00137,-50.68,,,,,,,
72.76,-0.00134,-47.15,,,,,,,
72.78,-0.00132,-43.76,,,,,,,
72.81,-0.00129,-39.89,,,,,,,
72.84,-0.00127,-36.41,,,,,,,
72.86,-0.00124,-33.65,,,,,,,
72.89,-0.00122,-30.5,,,,,,,
72.92,-0.00119,-27.41,,,,,,,
72.94,-0.00117,-24.27,,,,,,,
72.97,-0.00114,-21.27,,,,,,,
72.99,-0.00111,-18.17,,,,,,,
73.02,-0.00109,-15.14,,,,,,,
73.05,-0.00106,-11.73,,,,,,,
73.08,-0.00104,-8.23,,,,,,,
73.11,-0.00101,-5.28,,,,,,,
73.14,-0.00099,-1.92,,,,,,,
73.17,-0.00096,1.17,,,,,,,
73.19,-0.00093,4.2,,,,,,,
73.22,-0.00091,7.42,,,,,,,
73.25,-0.00088,10.97,,,,,,,
73.28,-0.00086,13.83,,,,,,,
73.3,-0.00083,16.82,,,,,,,
73.33,-0.00081,20.23,,,,,,,
73.36,-0.00078,23.36,,,,,,,
73.39,-0.00075,25.86,,,,,,,
73.44,-0.00073,28.21,,,,,,,
73.49,-0.0007,30.8,,,,,,,
73.52,-0.00068,33.65,,,,,,,
73.55,-0.00065,36.22,,,,,,,
73.58,-0.00063,38.83,,,,,,,
73.6,-0.0006,42.12,,,,,,,
73.62,-0.00058,44.92,,,,,,,
73.64,-0.00055,47.68,,,,,,,
73.67,-0.00052,50.29,,,,,,,
73.69,-0.0005,52.83,,,,,,,
73.71,-0.00047,55.22,,,,,,,
73.74,-0.00045,57.52,,,,,,,
73.77,-0.00042,59.62,,,,,,,
73.79,-0.0004,61.66,,,,,,,
73.83,-0.00037,63.65,,,,,,,
73.86,-0.00035,65.94,,,,,,,
73.89,-0.00032,67.61,,,,,,,
73.92,-0.0003,69.8,,,,,,,
73.95,-0.00027,71.86,,,,,,,
73.98,-0.00025,73.7,,,,,,,
146.09,-0.00023,80.98,,,,,,,
146.12,-0.0002,82.95,,,,,,,
146.14,-0.00017,84.82,,,,,,,
146.17,-0.00015,87.02,,,,,,,
146.19,-0.00012,89.55,,,,,,,
146.21,-0.0001,92.22,,,,,,,
146.23,-7e-05,94.58,,,,,,,
146.25,-5e-05,96.96,,,,,,,
146.26,-2e-05,99.32,,,,,,,
146.28,1e-05,101.8,,,,,,,
146.3,3e-05,104.21,,,,,,,
146.31,6e-05,106.32,,,,,,,
146.33,8e-05,108.29,,,,,,,
146.34,0.00011,110.53,,,,,,,
146.36,0.00013,112.4,,,,,,,
146.37,0.00016,114.17,,,,,,,
146.39,0.00019,115.83,,,,,,,
146.41,0.00021,117.51,,,,,,,
146.43,0.00024,118.89,,,,,,,
146.44,0.00026,120.37,,,,,,,
146.46,0.00029,121.64,,,,,,,
146.48,0.00031,122.82,,,,,,,
146.51,0.00034,123.97,,,,,,,
146.53,0.00036,124.98,,,,,,,
146.56,0.00039,125.96,,,,,,,
146.58,0.00042,126.96,,,,,,,
146.61,0.00044,127.82,,,,,,,
146.63,0.00047,128.64,,,,,,,
146.66,0.00049,129.56,,,,,,,
146.68,0.00052,130.36,,,,,,,
146.71,0.00054,131.24,,,,,,,
146.74,0.00057,132.24,,,,,,,
146.77,0.00059,133.25,,,,,,,
146.8,0.00062,134.38,,,,,,,
146.83,0.00064,135.52,,,,,,,
146.85,0.00067,136.85,,,,,,,
146.88,0.0007,138.15,,,,,,,
146.9,0.00072,139.32,,,,,,,
146.93,0.00075,140.71,,,,,,,
146.96,0.00077,142.0,,,,,,,
146.98,0.0008,143.29,,,,,,,
147.0,0.00082,144.39,,,,,,,
147.03,0.00085,145.6,,,,,,,
147.05,0.00087,146.74,,,,,,,
147.08,0.0009,147.75,,,,,,,
147.1,0.00093,148.69,,,,,,,
147.12,0.00095,149.6,,,,,,,
147.15,0.00098,150.44,,,,,,,
147.17,0.001,151.19,,,,,,,
147.19,0.00103,152.0,,,,,,,
147.22,0.00105,152.65,,,,,,,
147.24,0.00108,153.21,,,,,,,
147.26,0.00111,153.85,,,,,,,
147.29,0.00113,154.3,,,,,,,
147.31,0.00116,154.84,,,,,,,
147.34,0.00118,155.38,,,,,,,
147.37,0.00121,155.87,,,,,,,
147.39,0.00123,156.33,,,,,,,
147.42,0.00126,156.78,,,,,,,
147.44,0.00128,157.14,,,,,,,
147.46,0.00131,157.53,,,,,,,
147.49,0.00134,157.94,,,,,,,
147.52,0.00136,158.28,,,,,,,
147.54,0.00139,158.68,,,,,,,
147.56,0.00141,158.96,,,,,,,
147.59,0.00144,159.22,,,,,,,
147.61,0.00146,159.45,,,,,,,
147.63,0.00149,159.64,,,,,,,
147.66,0.00151,159.76,,,,,,,
147.68,0.00154,159.87,,,,,,,
147.71,0.00157,159.89,,,,,,,
147.74,0.00159,159.94,,,,,,,
147.77,0.00162,160.03,,,,,,,
147.79,0.00164,160.16,,,,,,,
147.82,0.00167,160.34,,,,,,,
147.85,0.00169,160.56,,,,,,,
147.87,0.00172,160.81,,,,,,,
147.9,0.00174,161.07,,,,,,,
147.92,0.00177,161.36,,,,,,,
147.95,0.00179,161.67,,,,,,,
147.97,0.00182,161.89,,,,,,,
147.99,0.00185,162.09,,,,,,,
148.01,0.00187,162.28,,,,,,,
148.04,0.0019,162.4,,,,,,,
148.06,0.00192,162.45,,,,,,,
148.08,0.00195,162.37,,,,,,,
148.11,0.00197,162.12,,,,,,,
148.14,0.002,161.1,,,,,,,
148.27,0.00197,139.34,,,,,,,
148.29,0.00195,134.29,,,,,,,
148.31,0.00192,129.56,,,,,,,
148.33,0.00189,124.97,,,,,,,
148.35,0.00187,120.49,,,,,,,
148.36,0.00184,116.36,,,,,,,
148.38,0.00182,112.42,,,,,,,
148.4,0.00179,108.22,,,,,,,
148.42,0.00176,104.14,,,,,,,
148.44,0.00174,100.26,,,,,,,
148.46,0.00171,96.56,,,,,,,
148.49,0.00169,92.79,,,,,,,
148.51,0.00166,89.29,,,,,,,
148.53,0.00164,85.32,,,,,,,
148.56,0.00161,81.97,,,,,,,
148.59,0.00159,78.26,,,,,,,
148.62,0.00156,74.3,,,,,,,
148.64,0.00154,70.62,,,,,,,
148.67,0.00151,67.25,,,,,,,
148.7,0.00148,63.93,,,,,,,
148.72,0.00146,60.61,,,,,,,
148.75,0.00143,57.31,,,,,,,
148.78,0.00141,53.95,,,,,,,
148.8,0.00138,50.55,,,,,,,
148.83,0.00136,47.15,,,,,,,
148.86,0.00133,43.9,,,,,,,
148.89,0.00131,40.4,,,,,,,
148.92,0.00128,36.81,,,,,,,
148.94,0.00126,33.66,,,,,,,
148.97,0.00123,30.25,,,,,,,
149.0,0.00121,26.94,,,,,,,
149.03,0.00118,23.84,,,,,,,
149.05,0.00116,20.71,,,,,,,
149.08,0.00113,17.48,,,,,,,
149.1,0.0011,14.54,,,,,,,
149.13,0.00108,11.48,,,,,,,
149.16,0.00105,8.42,,,,,,,
149.18,0.00103,5.39,,,,,,,
149.21,0.001,2.45,,,,,,,
149.24,0.00098,-0.46,,,,,,,
149.26,0.00095,-3.31,,,,,,,
149.29,0.00093,-6.21,,,,,,,
149.32,0.0009,-9.06,,,,,,,
149.35,0.00087,-11.91,,,,,,,
149.37,0.00085,-14.5,,,,,,,
149.41,0.00082,-16.67,,,,,,,
149.49,0.0008,-17.44,,,,,,,
149.56,0.00077,-19.62,,,,,,,
149.6,0.00075,-22.27,,,,,,,
149.64,0.00072,-24.77,,,,,,,
149.67,0.0007,-27.38,,,,,,,
149.7,0.00067,-29.78,,,,,,,
149.73,0.00065,-32.39,,,,,,,
149.76,0.00062,-35.1,,,,,,,
149.78,0.0006,-38.03,,,,,,,
149.8,0.00057,-40.94,,,,,,,
149.82,0.00054,-43.84,,,,,,,
149.84,0.00052,-47.26,,,,,,,
149.86,0.00049,-50.47,,,,,,,
149.87,0.00047,-53.21,,,,,,,
149.89,0.00044,-55.91,,,,,,,
149.9,0.00041,-58.56,,,,,,,
149.92,0.00039,-61.28,,,,,,,
149.93,0.00036,-63.87,,,,,,,
149.95,0.00034,-66.42,,,,,,,
149.96,0.00031,-68.96,,,,,,,
149.98,0.00029,-71.67,,,,,,,
149.99,0.00026,-73.87,,,,,,,
150.01,0.00024,-76.35,,,,,,,
150.02,0.00021,-78.55,,,,,,,
150.04,0.00018,-80.67,,,,,,,
150.06,0.00016,-82.9,,,,,,,
150.07,0.00013,-85.0,,,,,,,
150.09,0.00011,-87.07,,,,,,,
150.11,8e-05,-89.03,,,,,,,
150.13,5e-05,-91.0,,,,,,,
150.15,3e-05,-92.8,,,,,,,
150.18,0.0,-94.61,,,,,,,
150.2,-2e-05,-96.36,,,,,,,
150.22,-5e-05,-98.01,,,,,,,
150.25,-7e-05,-99.61,,,,,,,
150.27,-0.0001,-101.13,,,,,,,
150.29,-0.00012,-102.46,,,,,,,
150.32,-0.00015,-103.84,,,,,,,
150.34,-0.00018,-105.24,,,,,,,
150.37,-0.0002,-106.53,,,,,,,
150.39,-0.00023,-107.73,,,,,,,
150.42,-0.00025,-109.07,,,,,,,
150.45,-0.00028,-110.3,,,,,,,
150.47,-0.0003,-111.6,,,,,,,
150.5,-0.00033,-112.86,,,,,,,
150.52,-0.00035,-114.08,,,,,,,
150.55,-0.00038,-115.37,,,,,,,
150.58,-0.00041,-116.81,,,,,,,
150.61,-0.00043,-118.17,,,,,,,
150.63,-0.00046,-119.49,,,,,,,
150.66,-0.00048,-120.88,,,,,,,
150.69,-0.00051,-122.25,,,,,,,
150.72,-0.00053,-123.62,,,,,,,
150.75,-0.00056,-125.16,,,,,,,
150.77,-0.00058,-126.55,,,,,,,
150.79,-0.00061,-127.87,,,,,,,
150.82,-0.00064,-129.22,,,,,,,
150.84,-0.00066,-130.58,,,,,,,
150.87,-0.00069,-131.86,,,,,,,
150.89,-0.00071,-132.98,,,,,,,
150.92,-0.00074,-134.23,,,,,,,
150.94,-0.00076,-135.37,,,,,,,
150.96,-0.00079,-136.4,,,,,,,
150.99,-0.00081,-137.36,,,,,,,
151.01,-0.00084,-138.33,,,,,,,
151.04,-0.00087,-139.31,,,,,,,
151.06,-0.00089,-140.14,,,,,,,
151.09,-0.00092,-141.03,,,,,,,
151.11,-0.00094,-141.82,,,,,,,
151.13,-0.00097,-142.61,,,,,,,
151.16,-0.00099,-143.41,,,,,,,
151.19,-0.00102,-144.16,,,,,,,
151.21,-0.00104,-144.9,,,,,,,
151.24,-0.00107,-145.7,,,,,,,
151.27,-0.00109,-146.56,,,,,,,
151.29,-0.00112,-147.38,,,,,,,
151.32,-0.00114,-148.26,,,,,,,
151.35,-0.00117,-149.2,,,,,,,
151.38,-0.0012,-150.18,,,,,,,
151.41,-0.00122,-151.18,,,,,,,
151.43,-0.00125,-152.29,,,,,,,
151.46,-0.00127,-153.4,,,,,,,
151.49,-0.0013,-154.42,,,,,,,
151.51,-0.00132,-155.5,,,,,,,
151.54,-0.00135,-156.6,,,,,,,
151.56,-0.00138,-157.7,,,,,,,
151.59,-0.0014,-158.69,,,,,,,
151.61,-0.00143,-159.72,,,,,,,
151.63,-0.00145,-160.61,,,,,,,
151.66,-0.00148,-161.53,,,,,,,
151.68,-0.0015,-162.36,,,,,,,
151.7,-0.00153,-163.0,,,,,,,
151.73,-0.00155,-163.63,,,,,,,
151.75,-0.00158,-164.21,,,,,,,
151.77,-0.00161,-164.68,,,,,,,
151.79,-0.00163,-165.04,,,,,,,
151.81,-0.00166,-165.34,,,,,,,
151.83,-0.00168,-165.58,,,,,,,
151.86,-0.00171,-165.84,,,,,,,
151.88,-0.00173,-166.0,,,,,,,
151.91,-0.00176,-166.05,,,,,,,
151.93,-0.00178,-166.1,,,,,,,
151.96,-0.00181,-166.08,,,,,,,
151.98,-0.00183,-166.03,,,,,,,
152.0,-0.00186,-165.93,,,,,,,
152.03,-0.00189,-165.72,,,,,,,
152.06,-0.00191,-165.4,,,,,,,
152.08,-0.00194,-165.22,,,,,,,
152.11,-0.00196,-165.04,,,,,,,
152.13,-0.00199,-164.36,,,,,,,
152.17,-0.00201,-162.48,,,,,,,
152.26,-0.00199,-145.82,,,,,,,
152.29,-0.00196,-139.56,,,,,,,
152.31,-0.00193,-134.5,,,,,,,
152.32,-0.00191,-129.94,,,,,,,
152.34,-0.00188,-125.16,,,,,,,
152.36,-0.00186,-120.83,,,,,,,
152.38,-0.00183,-116.4,,,,,,,
152.4,-0.00181,-112.23,,,,,,,
152.42,-0.00178,-108.16,,,,,,,
152.43,-0.00176,-104.21,,,,,,,
152.46,-0.00173,-100.05,,,,,,,
152.48,-0.0017,-95.66,,,,,,,
152.5,-0.00168,-91.39,,,,,,,
152.53,-0.00165,-87.67,,,,,,,
152.55,-0.00163,-84.1,,,,,,,
152.57,-0.0016,-80.46,,,,,,,
152.59,-0.00158,-77.34,,,,,,,
152.62,-0.00155,-74.2,,,,,,,
152.64,-0.00152,-70.84,,,,,,,
152.67,-0.0015,-67.34,,,,,,,
152.7,-0.00147,-63.6,,,,,,,
152.72,-0.00145,-60.54,,,,,,,
152.75,-0.00142,-57.05,,,,,,,
152.78,-0.0014,-53.67,,,,,,,
152.81,-0.00137,-50.07,,,,,,,
152.84,-0.00134,-46.38,,,,,,,
152.86,-0.00132,-43.54,,,,,,,
152.89,-0.00129,-40.49,,,,,,,
152.92,-0.00127,-37.15,,,,,,,
152.94,-0.00124,-34.31,,,,,,,
152.97,-0.00122,-31.01,,,,,,,
153.0,-0.00119,-27.67,,,,,,,
153.02,-0.00117,-24.74,,,,,,,
153.05,-0.00114,-21.39,,,,,,,
153.08,-0.00111,-17.99,,,,,,,
153.11,-0.00109,-14.93,,,,,,,
153.14,-0.00106,-11.86,,,,,,,
153.17,-0.00104,-8.32,,,,,,,
153.2,-0.00101,-4.98,,,,,,,
153.23,-0.00099,-1.37,,,,,,,
153.26,-0.00096,1.73,,,,,,,
153.28,-0.00094,4.68,,,,,,,
153.31,-0.00091,7.83,,,,,,,
153.33,-0.00089,10.95,,,,,,,
153.36,-0.00086,13.99,,,,,,,
153.39,-0.00084,16.98,,,,,,,
153.42,-0.00081,20.05,,,,,,,
153.44,-0.00079,23.04,,,,,,,
153.47,-0.00076,25.45,,,,,,,
153.51,-0.00074,27.83,,,,,,,
153.56,-0.00071,30.36,,,,,,,
153.6,-0.00068,32.79,,,,,,,
153.63,-0.00066,35.08,,,,,,,
153.66,-0.00063,37.71,,,,,,,
153.69,-0.00061,40.86,,,,,,,
153.71,-0.00058,43.9,,,,,,,
153.73,-0.00056,46.79,,,,,,,
153.75,-0.00053,49.54,,,,,,,
153.77,-0.00051,51.9,,,,,,,
153.79,-0.00048,54.25,,,,,,,
153.82,-0.00046,56.65,,,,,,,
153.85,-0.00043,58.93,,,,,,,
153.88,-0.00041,61.33,,,,,,,
153.91,-0.00038,63.42,,,,,,,
153.94,-0.00036,65.46,,,,,,,
153.97,-0.00033,67.56,,,,,,,
154.0,-0.00031,69.86,,,,,,,
154.03,-0.00028,72.05,,,,,,,
154.06,-0.00025,74.34,,,,,,,
386.36,-0.00022,78.45,,,,,,,
386.39,-0.00019,80.52,,,,,,,
386.41,-0.00017,82.13,,,,,,,
386.44,-0.00014,83.98,,,,,,,
386.46,-0.00012,85.92,,,,,,,
386.49,-9e-05,88.47,,,,,,,
386.51,-6e-05,90.81,,,,,,,
386.53,-4e-05,93.43,,,,,,,
386.55,-1e-05,95.88,,,,,,,
386.56,1e-05,98.31,,,,,,,
386.58,4e-05,100.62,,,,,,,
386.59,7e-05,102.6,,,,,,,
386.61,9e-05,104.69,,,,,,,
386.62,0.00012,106.77,,,,,,,
386.64,0.00014,108.78,,,,,,,
386.66,0.00017,110.79,,,,,,,
386.67,0.00019,112.68,,,,,,,
386.69,0.00022,114.43,,,,,,,
386.71,0.00025,115.95,,,,,,,
386.72,0.00027,117.35,,,,,,,
386.74,0.0003,118.78,,,,,,,
386.77,0.00032,120.21,,,,,,,
386.79,0.00035,121.33,,,,,,,
386.81,0.00037,122.3,,,,,,,
386.83,0.0004,123.29,,,,,,,
386.85,0.00043,124.27,,,,,,,
386.88,0.00045,125.17,,,,,,,
386.91,0.00048,126.12,,,,,,,
386.94,0.0005,127.19,,,,,,,
386.97,0.00053,128.3,,,,,,,
386.99,0.00055,129.24,,,,,,,
387.02,0.00058,130.29,,,,,,,
387.04,0.0006,131.45,,,,,,,
387.07,0.00063,132.58,,,,,,,
387.09,0.00065,133.55,,,,,,,
387.11,0.00068,134.52,,,,,,,
387.14,0.00071,135.49,,,,,,,
387.16,0.00073,136.38,,,,,,,
387.18,0.00076,137.28,,,,,,,
387.21,0.00078,138.15,,,,,,,
387.24,0.00081,139.01,,,,,,,
387.26,0.00083,139.77,,,,,,,
387.29,0.00086,140.53,,,,,,,
387.31,0.00088,141.35,,,,,,,
387.34,0.00091,142.12,,,,,,,
387.36,0.00093,142.99,,,,,,,
387.39,0.00096,143.82,,,,,,,
387.42,0.00099,144.54,,,,,,,
387.44,0.00101,145.32,,,,,,,
387.46,0.00104,145.96,,,,,,,
387.49,0.00106,146.67,,,,,,,
387.51,0.00109,147.31,,,,,,,
387.54,0.00111,147.95,,,,,,,
387.57,0.00114,148.56,,,,,,,
387.59,0.00117,149.23,,,,,,,
387.62,0.00119,149.76,,,,,,,
387.64,0.00122,150.45,,,,,,,
387.67,0.00124,151.1,,,,,,,
387.69,0.00127,151.74,,,,,,,
387.72,0.00129,152.35,,,,,,,
387.75,0.00132,152.99,,,,,,,
387.77,0.00135,153.68,,,,,,,
387.79,0.00137,154.2,,,,,,,
387.82,0.0014,154.74,,,,,,,
387.84,0.00142,155.27,,,,,,,
387.87,0.00145,155.75,,,,,,,
387.9,0.00147,156.26,,,,,,,
387.92,0.0015,156.74,,,,,,,
387.95,0.00152,157.21,,,,,,,
387.97,0.00155,157.75,,,,,,,
388.0,0.00157,158.32,,,,,,,
388.03,0.0016,158.88,,,,,,,
388.05,0.00163,159.41,,,,,,,
388.08,0.00165,159.96,,,,,,,
388.1,0.00168,160.52,,,,,,,
388.12,0.0017,161.04,,,,,,,
388.15,0.00173,161.42,,,,,,,
388.17,0.00175,161.84,,,,,,,
388.19,0.00178,162.15,,,,,,,
388.22,0.0018,162.49,,,,,,,
388.24,0.00183,162.72,,,,,,,
388.26,0.00185,162.9,,,,,,,
388.29,0.00188,163.06,,,,,,,
388.31,0.00191,163.17,,,,,,,
388.34,0.00193,163.19,,,,,,,
388.36,0.00196,163.19,,,,,,,
388.39,0.00198,162.75,,,,,,,
388.42,0.00201,161.24,,,,,,,
388.53,0.00198,143.12,,,,,,,
388.55,0.00196,138.09,,,,,,,
388.57,0.00193,133.31,,,,,,,
388.58,0.0019,128.47,,,,,,,
388.6,0.00188,124.04,,,,,,,
388.62,0.00185,119.61,,,,,,,
388.64,0.00183,115.43,,,,,,,
388.66,0.0018,111.44,,,,,,,
388.68,0.00178,107.6,,,,,,,
388.7,0.00175,103.83,,,,,,,
388.72,0.00173,100.13,,,,,,,
388.74,0.0017,96.1,,,,,,,
388.76,0.00167,92.48,,,,,,,
388.79,0.00165,88.69,,,,,,,
388.82,0.00162,84.84,,,,,,,
388.84,0.0016,81.14,,,,,,,
388.87,0.00157,77.52,,,,,,,
388.9,0.00155,73.82,,,,,,,
388.93,0.00152,70.19,,,,,,,
388.96,0.0015,66.59,,,,,,,
388.98,0.00147,62.92,,,,,,,
389.01,0.00144,59.67,,,,,,,
389.03,0.00142,56.74,,,,,,,
389.06,0.00139,53.59,,,,,,,
389.09,0.00137,50.05,,,,,,,
389.11,0.00134,47.03,,,,,,,
389.14,0.00132,43.81,,,,,,,
389.16,0.00129,40.58,,,,,,,
389.19,0.00127,37.3,,,,,,,
389.22,0.00124,33.92,,,,,,,
389.25,0.00122,30.94,,,,,,,
389.27,0.00119,28.0,,,,,,,
389.3,0.00117,25.09,,,,,,,
389.32,0.00114,22.19,,,,,,,
389.35,0.00112,19.29,,,,,,,
389.38,0.00109,15.99,,,,,,,
389.41,0.00106,13.11,,,,,,,
389.43,0.00104,10.29,,,,,,,
389.46,0.00101,7.52,,,,,,,
389.48,0.00099,4.81,,,,,,,
389.51,0.00096,1.73,,,,,,,
389.55,0.00094,-1.65,,,,,,,
389.58,0.00091,-5.36,,,,,,,
389.61,0.00089,-8.14,,,,,,,
389.63,0.00086,-10.91,,,,,,,
389.66,0.00083,-13.57,,,,,,,
389.68,0.00081,-15.84,,,,,,,
389.72,0.00078,-17.29,,,,,,,
389.79,0.00076,-17.28,,,,,,,
389.84,0.00074,-18.38,,,,,,,
389.86,0.00073,-19.06,,,,,,,
389.9,0.00071,-21.46,,,,,,,
389.93,0.00068,-23.82,,,,,,,
389.96,0.00066,-26.25,,,,,,,
389.99,0.00063,-28.68,,,,,,,
390.02,0.00061,-31.13,,,,,,,
390.05,0.00058,-33.6,,,,,,,
390.08,0.00056,-36.7,,,,,,,
390.1,0.00053,-39.6,,,,,,,
390.12,0.0005,-42.38,,,,,,,
390.14,0.00048,-45.61,,,,,,,
390.16,0.00045,-48.46,,,,,,,
390.17,0.00043,-51.22,,,,,,,
390.19,0.0004,-53.94,,,,,,,
390.2,0.00038,-56.61,,,,,,,
390.22,0.00035,-59.26,,,,,,,
390.24,0.00032,-62.17,,,,,,,
390.25,0.0003,-64.82,,,,,,,
390.27,0.00027,-67.31,,,,,,,
390.28,0.00025,-69.88,,,,,,,
390.3,0.00022,-72.59,,,,,,,
390.31,0.0002,-74.86,,,,,,,
390.33,0.00017,-77.13,,,,,,,
390.35,0.00014,-79.39,,,,,,,
390.36,0.00012,-81.53,,,,,,,
390.38,9e-05,-83.8,,,,,,,
390.4,7e-05,-85.87,,,,,,,
390.42,4e-05,-87.7,,,,,,,
390.44,2e-05,-89.54,,,,,,,
390.46,-1e-05,-91.27,,,,,,,
390.48,-3e-05,-92.93,,,,,,,
390.5,-6e-05,-94.69,,,,,,,
390.52,-9e-05,-96.29,,,,,,,
390.55,-0.00011,-97.94,,,,,,,
390.57,-0.00014,-99.36,,,,,,,
390.6,-0.00016,-100.86,,,,,,,
390.62,-0.00019,-102.29,,,,,,,
390.65,-0.00021,-103.68,,,,,,,
390.67,-0.00024,-105.08,,,,,,,
390.7,-0.00026,-106.71,,,,,,,
390.73,-0.00029,-108.19,,,,,,,
390.76,-0.00031,-109.75,,,,,,,
390.78,-0.00034,-111.14,,,,,,,
390.81,-0.00037,-112.62,,,,,,,
390.83,-0.00039,-114.09,,,,,,,
390.86,-0.00042,-115.58,,,,,,,
390.89,-0.00044,-117.02,,,,,,,
390.91,-0.00047,-118.43,,,,,,,
390.94,-0.00049,-119.6,,,,,,,
390.96,-0.00052,-121.02,,,,,,,
390.99,-0.00054,-122.43,,,,,,,
391.01,-0.00057,-123.74,,,,,,,
391.04,-0.0006,-124.94,,,,,,,
391.06,-0.00062,-126.18,,,,,,,
391.09,-0.00065,-127.54,,,,,,,
391.11,-0.00067,-128.75,,,,,,,
391.14,-0.0007,-129.91,,,,,,,
391.16,-0.00072,-131.17,,,,,,,
391.19,-0.00075,-132.45,,,,,,,
391.22,-0.00077,-133.68,,,,,,,
391.25,-0.0008,-134.93,,,,,,,
391.27,-0.00082,-136.18,,,,,,,
391.3,-0.00085,-137.4,,,,,,,
391.32,-0.00088,-138.66,,,,,,,
391.34,-0.0009,-139.84,,,,,,,
391.37,-0.00093,-140.99,,,,,,,
391.39,-0.00095,-142.02,,,,,,,
391.42,-0.00098,-143.21,,,,,,,
391.45,-0.001,-144.36,,,,,,,
391.48,-0.00103,-145.59,,,,,,,
391.51,-0.00105,-146.96,,,,,,,
391.54,-0.00108,-148.23,,,,,,,
391.56,-0.00111,-149.35,,,,,,,
391.59,-0.00113,-150.72,,,,,,,
391.62,-0.00116,-152.04,,,,,,,
391.64,-0.00118,-153.1,,,,,,,
391.66,-0.00121,-154.16,,,,,,,
391.68,-0.00123,-155.24,,,,,,,
391.71,-0.00126,-156.24,,,,,,,
391.73,-0.00129,-157.19,,,,,,,
391.75,-0.00131,-158.05,,,,,,,
391.77,-0.00134,-158.89,,,,,,,
391.79,-0.00136,-159.55,,,,,,,
391.82,-0.00139,-160.23,,,,,,,
391.84,-0.00141,-160.8,,,,,,,
391.87,-0.00144,-161.38,,,,,,,
391.9,-0.00146,-161.91,,,,,,,
391.92,-0.00149,-162.29,,,,,,,
391.95,-0.00151,-162.74,,,,,,,
391.97,-0.00154,-163.14,,,,,,,
391.99,-0.00157,-163.56,,,,,,,
392.02,-0.00159,-163.9,,,,,,,
392.04,-0.00162,-164.21,,,,,,,
392.06,-0.00164,-164.48,,,,,,,
392.08,-0.00167,-164.64,,,,,,,
392.1,-0.00169,-164.75,,,,,,,
392.13,-0.00172,-164.77,,,,,,,
392.16,-0.00175,-164.72,,,,,,,
392.19,-0.00177,-164.73,,,,,,,
392.21,-0.0018,-164.68,,,,,,,
392.24,-0.00182,-164.8,,,,,,,
392.26,-0.00185,-164.86,,,,,,,
392.29,-0.00187,-164.99,,,,,,,
392.31,-0.0019,-165.05,,,,,,,
392.33,-0.00192,-165.03,,,,,,,
392.36,-0.00195,-165.01,,,,,,,
392.38,-0.00197,-164.75,,,,,,,
392.41,-0.002,-163.72,,,,,,,
392.54,-0.00197,-142.55,,,,,,,
392.56,-0.00195,-136.55,,,,,,,
392.58,-0.00192,-131.47,,,,,,,
392.6,-0.0019,-127.13,,,,,,,
392.62,-0.00187,-122.85,,,,,,,
392.63,-0.00185,-118.71,,,,,,,
392.65,-0.00182,-114.67,,,,,,,
392.67,-0.0018,-110.64,,,,,,,
392.69,-0.00177,-106.48,,,,,,,
392.71,-0.00175,-102.32,,,,,,,
392.73,-0.00172,-98.53,,,,,,,
392.75,-0.00169,-94.6,,,,,,,
392.77,-0.00167,-91.08,,,,,,,
392.79,-0.00164,-87.83,,,,,,,
392.81,-0.00162,-84.35,,,,,,,
392.84,-0.00159,-80.01,,,,,,,
392.88,-0.00157,-75.81,,,,,,,
392.91,-0.00154,-71.71,,,,,,,
392.94,-0.00151,-67.43,,,,,,,
392.96,-0.00149,-63.83,,,,,,,
392.99,-0.00146,-60.37,,,,,,,
393.02,-0.00144,-56.67,,,,,,,
393.04,-0.00141,-53.49,,,,,,,
393.07,-0.00139,-49.89,,,,,,,
393.1,-0.00136,-46.17,,,,,,,
393.12,-0.00134,-42.53,,,,,,,
393.15,-0.00131,-39.06,,,,,,,
393.18,-0.00128,-35.5,,,,,,,
393.21,-0.00126,-32.12,,,,,,,
393.23,-0.00123,-29.03,,,,,,,
393.26,-0.00121,-25.65,,,,,,,
393.28,-0.00118,-22.47,,,,,,,
393.31,-0.00116,-19.39,,,,,,,
393.34,-0.00113,-15.88,,,,,,,
393.36,-0.00111,-12.83,,,,,,,
393.39,-0.00108,-10.26,,,,,,,
393.41,-0.00106,-7.43,,,,,,,
393.44,-0.00103,-4.1,,,,,,,
393.47,-0.00101,-0.42,,,,,,,
393.51,-0.00098,3.54,,,,,,,
393.54,-0.00095,6.63,,,,,,,
393.56,-0.00093,9.74,,,,,,,
393.59,-0.0009,12.64,,,,,,,
393.61,-0.00088,15.36,,,,,,,
393.63,-0.00085,17.96,,,,,,,
393.66,-0.00083,20.61,,,,,,,
393.68,-0.0008,23.05,,,,,,,
393.71,-0.00078,25.09,,,,,,,
393.75,-0.00075,27.11,,,,,,,
393.8,-0.00072,29.13,,,,,,,
393.83,-0.0007,31.12,,,,,,,
393.87,-0.00067,33.42,,,,,,,
393.91,-0.00065,36.4,,,,,,,
393.93,-0.00062,39.47,,,,,,,
393.95,-0.0006,42.34,,,,,,,
393.97,-0.00057,44.9,,,,,,,
393.99,-0.00055,47.42,,,,,,,
394.02,-0.00052,50.13,,,,,,,
394.04,-0.0005,52.89,,,,,,,
394.07,-0.00047,55.46,,,,,,,
394.1,-0.00044,57.84,,,,,,,
394.13,-0.00042,59.86,,,,,,,
394.15,-0.00039,61.81,,,,,,,
394.19,-0.00037,64.09,,,,,,,
394.21,-0.00034,65.63,,,,,,,
394.23,-0.00032,67.09,,,,,,,
394.26,-0.00029,68.98,,,,,,,
394.3,-0.00027,71.08,,,,,,,
394.34,-0.00024,73.6,,,,,,,
786.8,-0.00021,73.68,,,,,,,
786.83,-0.00019,75.6,,,,,,,
786.86,-0.00016,77.56,,,,,,,
786.89,-0.00014,79.55,,,,,,,
786.91,-0.00011,81.58,,,,,,,
786.94,-8e-05,83.66,,,,,,,
786.97,-6e-05,85.72,,,,,,,
786.99,-3e-05,88.1,,,,,,,
787.02,-1e-05,90.68,,,,,,,
787.03,2e-05,93.15,,,,,,,
787.05,4e-05,95.62,,,,,,,
787.07,7e-05,98.15,,,,,,,
787.08,9e-05,100.46,,,,,,,
787.1,0.00012,102.75,,,,,,,
787.12,0.00015,104.98,,,,,,,
787.13,0.00017,107.31,,,,,,,
787.15,0.0002,109.54,,,,,,,
787.16,0.00022,111.55,,,,,,,
787.18,0.00025,113.39,,,,,,,
787.2,0.00027,115.36,,,,,,,
787.21,0.0003,117.15,,,,,,,
787.23,0.00032,118.89,,,,,,,
787.25,0.00035,120.7,,,,,,,
787.27,0.00038,122.18,,,,,,,
787.29,0.0004,123.54,,,,,,,
787.32,0.00043,124.94,,,,,,,
787.34,0.00045,126.11,,,,,,,
787.36,0.00048,127.23,,,,,,,
787.39,0.0005,128.4,,,,,,,
787.41,0.00053,129.45,,,,,,,
787.44,0.00055,130.43,,,,,,,
787.46,0.00058,131.54,,,,,,,
787.49,0.00061,132.52,,,,,,,
787.51,0.00063,133.41,,,,,,,
787.54,0.00066,134.45,,,,,,,
787.56,0.00068,135.44,,,,,,,
787.58,0.00071,136.31,,,,,,,
787.61,0.00073,137.14,,,,,,,
787.63,0.00076,138.07,,,,,,,
787.66,0.00078,138.94,,,,,,,
787.69,0.00081,139.84,,,,,,,
787.71,0.00084,140.71,,,,,,,
787.74,0.00086,141.65,,,,,,,
787.77,0.00089,142.68,,,,,,,
787.79,0.00091,143.7,,,,,,,
787.82,0.00094,144.8,,,,,,,
787.85,0.00096,145.88,,,,,,,
787.88,0.00099,146.94,,,,,,,
787.9,0.00101,148.1,,,,,,,
787.93,0.00104,149.2,,,,,,,
787.95,0.00107,150.45,,,,,,,
787.98,0.00109,151.52,,,,,,,
788.0,0.00112,152.52,,,,,,,
788.03,0.00114,153.47,,,,,,,
788.05,0.00117,154.42,,,,,,,
788.07,0.00119,155.29,,,,,,,
788.1,0.00122,156.14,,,,,,,
788.12,0.00124,156.92,,,,,,,
788.14,0.00127,157.56,,,,,,,
788.17,0.0013,158.25,,,,,,,
788.19,0.00132,158.9,,,,,,,
788.22,0.00135,159.45,,,,,,,
788.24,0.00137,159.92,,,,,,,
788.27,0.0014,160.45,,,,,,,
788.29,0.00142,160.93,,,,,,,
788.32,0.00145,161.4,,,,,,,
788.34,0.00147,161.8,,,,,,,
788.36,0.0015,162.2,,,,,,,
788.39,0.00153,162.54,,,,,,,
788.41,0.00155,162.82,,,,,,,
788.44,0.00158,163.08,,,,,,,
788.46,0.0016,163.3,,,,,,,
788.49,0.00163,163.53,,,,,,,
788.51,0.00165,163.81,,,,,,,
788.54,0.00168,164.05,,,,,,,
788.56,0.0017,164.26,,,,,,,
788.58,0.00173,164.4,,,,,,,
788.61,0.00176,164.49,,,,,,,
788.63,0.00178,164.53,,,,,,,
788.66,0.00181,164.52,,,,,,,
788.68,0.00183,164.49,,,,,,,
788.7,0.00186,164.36,,,,,,,
788.73,0.00188,164.22,,,,,,,
788.75,0.00191,164.09,,,,,,,
788.78,0.00194,163.92,,,,,,,
788.8,0.00196,163.68,,,,,,,
788.83,0.00199,163.07,,,,,,,
788.86,0.00201,161.24,,,,,,,
788.97,0.00199,142.67,,,,,,,
788.99,0.00196,136.91,,,,,,,
789.01,0.00193,131.52,,,,,,,
789.03,0.00191,126.8,,,,,,,
789.05,0.00188,122.21,,,,,,,
789.07,0.00186,117.7,,,,,,,
789.09,0.00183,113.46,,,,,,,
789.11,0.00181,109.35,,,,,,,
789.13,0.00178,105.17,,,,,,,
789.14,0.00176,101.3,,,,,,,
789.17,0.00173,97.39,,,,,,,
789.19,0.00171,93.56,,,,,,,
789.21,0.00168,89.79,,,,,,,
789.23,0.00165,86.21,,,,,,,
789.26,0.00163,82.41,,,,,,,
789.28,0.0016,78.81,,,,,,,
789.31,0.00158,75.3,,,,,,,
789.33,0.00155,71.85,,,,,,,
789.36,0.00153,68.4,,,,,,,
789.39,0.0015,65.07,,,,,,,
789.41,0.00148,61.75,,,,,,,
789.44,0.00145,58.62,,,,,,,
789.46,0.00143,55.35,,,,,,,
789.49,0.0014,51.87,,,,,,,
789.52,0.00138,48.54,,,,,,,
789.55,0.00135,45.28,,,,,,,
789.57,0.00133,42.18,,,,,,,
789.6,0.0013,39.05,,,,,,,
789.63,0.00127,35.79,,,,,,,
789.65,0.00125,32.85,,,,,,,
789.68,0.00122,29.69,,,,,,,
789.71,0.0012,26.52,,,,,,,
789.74,0.00117,23.44,,,,,,,
789.77,0.00115,20.24,,,,,,,
789.79,0.00112,17.08,,,,,,,
789.82,0.0011,14.29,,,,,,,
789.84,0.00107,11.72,,,,,,,
789.84,0.00107,11.4,,,,,,,
789.87,0.00105,8.35,,,,,,,
789.9,0.00102,5.46,,,,,,,
789.92,0.00099,2.51,,,,,,,
789.95,0.00097,-0.27,,,,,,,
789.98,0.00094,-3.02,,,,,,,
790.0,0.00092,-5.85,,,,,,,
790.03,0.00089,-8.66,,,,,,,
790.06,0.00087,-11.34,,,,,,,
790.09,0.00084,-13.93,,,,,,,
790.12,0.00081,-16.18,,,,,,,
790.19,0.00079,-16.81,,,,,,,
790.26,0.00076,-18.35,,,,,,,
790.31,0.00074,-20.88,,,,,,,
790.35,0.00071,-23.69,,,,,,,
790.39,0.00069,-26.51,,,,,,,
790.42,0.00066,-29.41,,,,,,,
790.46,0.00064,-32.43,,,,,,,
790.48,0.00061,-35.37,,,,,,,
790.51,0.00059,-38.51,,,,,,,
790.53,0.00056,-41.23,,,,,,,
790.55,0.00053,-44.44,,,,,,,
790.57,0.00051,-48.09,,,,,,,
790.58,0.00048,-51.27,,,,,,,
790.6,0.00046,-54.41,,,,,,,
790.62,0.00043,-57.42,,,,,,,
790.63,0.00041,-60.29,,,,,,,
790.65,0.00038,-63.16,,,,,,,
790.67,0.00035,-65.97,,,,,,,
790.68,0.00033,-68.63,,,,,,,
790.7,0.0003,-71.14,,,,,,,
790.71,0.00028,-73.76,,,,,,,
790.72,0.00025,-76.21,,,,,,,
790.74,0.00022,-78.7,,,,,,,
790.75,0.0002,-80.98,,,,,,,
790.77,0.00017,-83.22,,,,,,,
790.79,0.00015,-85.41,,,,,,,
790.8,0.00012,-87.54,,,,,,,
790.82,0.0001,-89.67,,,,,,,
790.84,7e-05,-91.71,,,,,,,
790.86,5e-05,-93.7,,,,,,,
790.88,2e-05,-95.64,,,,,,,
790.9,-1e-05,-97.23,,,,,,,
790.92,-3e-05,-98.77,,,,,,,
790.94,-6e-05,-100.25,,,,,,,
790.96,-8e-05,-101.69,,,,,,,
790.98,-0.00011,-103.13,,,,,,,
791.01,-0.00013,-104.44,,,,,,,
791.03,-0.00016,-105.82,,,,,,,
791.06,-0.00018,-107.06,,,,,,,
791.08,-0.00021,-108.19,,,,,,,
791.1,-0.00023,-109.31,,,,,,,
791.13,-0.00026,-110.49,,,,,,,
791.16,-0.00028,-111.64,,,,,,,
791.18,-0.00031,-112.73,,,,,,,
791.21,-0.00034,-114.02,,,,,,,
791.24,-0.00036,-115.35,,,,,,,
791.27,-0.00039,-116.69,,,,,,,
791.3,-0.00041,-118.02,,,,,,,
791.32,-0.00044,-119.39,,,,,,,
791.35,-0.00046,-120.83,,,,,,,
791.38,-0.00049,-122.29,,,,,,,
791.4,-0.00051,-123.68,,,,,,,
791.43,-0.00054,-124.91,,,,,,,
791.45,-0.00056,-126.15,,,,,,,
791.47,-0.00059,-127.39,,,,,,,
791.49,-0.00061,-128.43,,,,,,,
791.52,-0.00064,-129.79,,,,,,,
791.55,-0.00067,-130.94,,,,,,,
791.57,-0.00069,-131.91,,,,,,,
791.59,-0.00072,-132.94,,,,,,,
791.62,-0.00074,-133.92,,,,,,,
791.65,-0.00077,-134.93,,,,,,,
791.67,-0.00079,-135.88,,,,,,,
791.7,-0.00082,-136.93,,,,,,,
791.72,-0.00084,-137.85,,,,,,,
791.75,-0.00087,-138.83,,,,,,,
791.78,-0.00089,-139.85,,,,,,,
791.8,-0.00092,-140.89,,,,,,,
791.83,-0.00095,-141.86,,,,,,,
791.85,-0.00097,-142.72,,,,,,,
791.88,-0.001,-143.64,,,,,,,
791.9,-0.00102,-144.62,,,,,,,
791.93,-0.00105,-145.65,,,,,,,
791.96,-0.00107,-146.61,,,,,,,
791.99,-0.0011,-147.73,,,,,,,
792.02,-0.00112,-148.79,,,,,,,
792.05,-0.00115,-150.03,,,,,,,
792.07,-0.00117,-151.26,,,,,,,
792.1,-0.0012,-152.34,,,,,,,
792.12,-0.00123,-153.32,,,,,,,
792.14,-0.00125,-154.21,,,,,,,
792.16,-0.00128,-155.08,,,,,,,
792.18,-0.0013,-155.88,,,,,,,
792.21,-0.00133,-156.65,,,,,,,
792.23,-0.00135,-157.29,,,,,,,
792.25,-0.00138,-157.85,,,,,,,
792.27,-0.0014,-158.33,,,,,,,
792.3,-0.00143,-158.8,,,,,,,
792.32,-0.00146,-159.14,,,,,,,
792.35,-0.00148,-159.46,,,,,,,
792.37,-0.00151,-159.78,,,,,,,
792.39,-0.00153,-160.02,,,,,,,
792.42,-0.00156,-160.3,,,,,,,
792.45,-0.00158,-160.56,,,,,,,
792.48,-0.00161,-160.89,,,,,,,
792.5,-0.00163,-161.26,,,,,,,
792.53,-0.00166,-161.57,,,,,,,
792.55,-0.00168,-161.95,,,,,,,
792.58,-0.00171,-162.35,,,,,,,
792.61,-0.00174,-162.83,,,,,,,
792.64,-0.00176,-163.27,,,,,,,
792.66,-0.00179,-163.73,,,,,,,
792.69,-0.00181,-164.22,,,,,,,
792.71,-0.00184,-164.7,,,,,,,
792.74,-0.00186,-165.19,,,,,,,
792.77,-0.00189,-165.63,,,,,,,
792.79,-0.00191,-166.07,,,,,,,
792.82,-0.00194,-166.4,,,,,,,
792.84,-0.00196,-166.14,,,,,,,
792.88,-0.00199,-164.45,,,,,,,
793.0,-0.00196,-144.09,,,,,,,
793.02,-0.00194,-138.38,,,,,,,
793.04,-0.00191,-133.25,,,,,,,
793.06,-0.00189,-128.13,,,,,,,
793.08,-0.00186,-123.28,,,,,,,
793.1,-0.00184,-118.82,,,,,,,
793.11,-0.00181,-114.42,,,,,,,
793.13,-0.00178,-110.53,,,,,,,
793.15,-0.00176,-106.82,,,,,,,
793.16,-0.00173,-103.24,,,,,,,
793.18,-0.00171,-99.8,,,,,,,
793.2,-0.00168,-96.32,,,,,,,
793.22,-0.00166,-92.36,,,,,,,
793.25,-0.00163,-88.17,,,,,,,
793.28,-0.0016,-84.1,,,,,,,
793.3,-0.00158,-80.35,,,,,,,
793.33,-0.00155,-76.81,,,,,,,
793.35,-0.00153,-72.97,,,,,,,
793.38,-0.0015,-69.24,,,,,,,
793.41,-0.00148,-66.02,,,,,,,
793.43,-0.00145,-62.85,,,,,,,
793.46,-0.00143,-59.41,,,,,,,
793.49,-0.0014,-55.59,,,,,,,
793.51,-0.00138,-52.21,,,,,,,
793.54,-0.00135,-48.33,,,,,,,
793.57,-0.00132,-45.28,,,,,,,
793.59,-0.0013,-42.21,,,,,,,
793.62,-0.00127,-38.93,,,,,,,
793.65,-0.00125,-35.51,,,,,,,
793.68,-0.00122,-32.25,,,,,,,
793.7,-0.0012,-29.44,,,,,,,
793.72,-0.00117,-26.75,,,,,,,
793.75,-0.00115,-23.47,,,,,,,
793.78,-0.00112,-20.44,,,,,,,
793.81,-0.0011,-17.22,,,,,,,
793.84,-0.00107,-13.77,,,,,,,
793.87,-0.00105,-10.07,,,,,,,
793.9,-0.00102,-6.45,,,,,,,
793.93,-0.001,-2.92,,,,,,,
793.96,-0.00097,0.54,,,,,,,
793.99,-0.00094,3.65,,,,,,,
794.01,-0.00092,6.59,,,,,,,
794.04,-0.00089,10.06,,,,,,,
794.07,-0.00087,13.08,,,,,,,
794.09,-0.00084,16.15,,,,,,,
794.12,-0.00082,19.23,,,,,,,
794.15,-0.00079,22.44,,,,,,,
794.18,-0.00077,25.16,,,,,,,
794.22,-0.00074,27.66,,,,,,,
794.27,-0.00071,30.46,,,,,,,
794.31,-0.00069,33.12,,,,,,,
794.34,-0.00066,35.55,,,,,,,
794.38,-0.00064,38.4,,,,,,,
794.4,-0.00061,41.09,,,,,,,
794.42,-0.00059,44.27,,,,,,,
794.44,-0.00056,46.84,,,,,,,
794.46,-0.00054,49.33,,,,,,,
794.48,-0.00051,51.71,,,,,,,
794.5,-0.00049,54.43,,,,,,,
794.53,-0.00046,57.14,,,,,,,
794.56,-0.00043,59.71,,,,,,,
794.59,-0.00041,62.33,,,,,,,
794.62,-0.00038,64.71,,,,,,,
794.65,-0.00036,66.9,,,,,,,
794.69,-0.00033,69.25,,,,,,,
794.71,-0.00031,71.07,,,,,,,
794.74,-0.00028,72.96,,,,,,,
794.77,-0.00026,75.23,,,,,,,
1587.67,-0.0002,66.95,,,,,,,
1587.7,-0.00018,68.79,,,,,,,
1587.73,-0.00015,70.71,,,,,,,
1587.76,-0.00013,72.68,,,,,,,
1587.79,-0.0001,74.57,,,,,,,
1587.82,-8e-05,76.58,,,,,,,
1587.85,-5e-05,78.61,,,,,,,
1587.88,-3e-05,80.63,,,,,,,
1587.9,-0.0,82.68,,,,,,,
1587.93,3e-05,84.86,,,,,,,
1587.95,5e-05,87.29,,,,,,,
1587.97,8e-05,89.8,,,,,,,
1587.99,0.0001,92.24,,,,,,,
1588.01,0.00013,94.74,,,,,,,
1588.02,0.00015,97.18,,,,,,,
1588.04,0.00018,99.63,,,,,,,
1588.06,0.0002,101.97,,,,,,,
1588.07,0.00023,104.07,,,,,,,
1588.09,0.00026,106.38,,,,,,,
1588.11,0.00028,108.41,,,,,,,
1588.12,0.00031,110.53,,,,,,,
1588.14,0.00033,112.37,,,,,,,
1588.16,0.00036,114.24,,,,,,,
1588.18,0.00038,116.03,,,,,,,
1588.2,0.00041,117.78,,,,,,,
1588.22,0.00043,119.4,,,,,,,
1588.24,0.00046,121.1,,,,,,,
1588.26,0.00049,122.53,,,,,,,
1588.28,0.00051,123.92,,,,,,,
1588.31,0.00054,125.25,,,,,,,
1588.33,0.00056,126.58,,,,,,,
1588.36,0.00059,127.85,,,,,,,
1588.39,0.00061,129.05,,,,,,,
1588.41,0.00064,130.19,,,,,,,
1588.43,0.00066,131.33,,,,,,,
1588.46,0.00069,132.33,,,,,,,
1588.48,0.00072,133.28,,,,,,,
1588.5,0.00074,134.08,,,,,,,
1588.52,0.00077,134.9,,,,,,,
1588.54,0.00079,135.68,,,,,,,
1588.58,0.00082,136.54,,,,,,,
1588.6,0.00084,137.33,,,,,,,
1588.63,0.00087,138.34,,,,,,,
1588.66,0.00089,139.38,,,,,,,
1588.69,0.00092,140.52,,,,,,,
1588.72,0.00094,141.73,,,,,,,
1588.75,0.00097,143.07,,,,,,,
1588.77,0.001,144.34,,,,,,,
1588.8,0.00102,145.7,,,,,,,
1588.82,0.00105,146.98,,,,,,,
1588.85,0.00107,148.15,,,,,,,
1588.87,0.0011,149.3,,,,,,,
1588.89,0.00112,150.31,,,,,,,
1588.91,0.00115,151.34,,,,,,,
1588.93,0.00117,152.26,,,,,,,
1588.96,0.0012,153.06,,,,,,,
1588.97,0.00122,153.82,,,,,,,
1588.99,0.00125,154.4,,,,,,,
1589.02,0.00128,154.83,,,,,,,
1589.04,0.0013,155.22,,,,,,,
1589.07,0.00133,155.54,,,,,,,
1589.09,0.00135,155.7,,,,,,,
1589.12,0.00138,155.81,,,,,,,
1589.14,0.0014,155.93,,,,,,,
1589.17,0.00143,156.19,,,,,,,
1589.2,0.00145,156.43,,,,,,,
1589.24,0.00148,156.85,,,,,,,
1589.27,0.0015,157.48,,,,,,,
1589.3,0.00153,158.18,,,,,,,
1589.32,0.00156,158.98,,,,,,,
1589.35,0.00158,159.76,,,,,,,
1589.37,0.00161,160.5,,,,,,,
1589.39,0.00163,161.23,,,,,,,
1589.41,0.00166,161.88,,,,,,,
1589.43,0.00168,162.54,,,,,,,
1589.46,0.00171,163.17,,,,,,,
1589.48,0.00173,163.6,,,,,,,
1589.5,0.00176,163.94,,,,,,,
1589.52,0.00179,164.18,,,,,,,
1589.55,0.00181,164.35,,,,,,,
1589.57,0.00184,164.51,,,,,,,
1589.59,0.00186,164.6,,,,,,,
1589.62,0.00189,164.61,,,,,,,
1589.64,0.00191,164.51,,,,,,,
1589.67,0.00194,164.39,,,,,,,
1589.69,0.00196,164.11,,,,,,,
1589.72,0.00199,163.09,,,,,,,
1589.77,0.00201,159.07,,,,,,,
1589.83,0.00199,147.97,,,,,,,
1589.84,0.00198,144.95,,,,,,,
1589.85,0.00196,142.24,,,,,,,
1589.87,0.00194,137.41,,,,,,,
1589.89,0.00191,133.05,,,,,,,
1589.91,0.00189,128.63,,,,,,,
1589.93,0.00186,124.45,,,,,,,
1589.95,0.00183,120.19,,,,,,,
1589.97,0.00181,115.7,,,,,,,
1590.0,0.00178,110.94,,,,,,,
1590.02,0.00176,105.96,,,,,,,
1590.04,0.00173,101.74,,,,,,,
1590.07,0.00171,97.97,,,,,,,
1590.09,0.00168,94.61,,,,,,,
1590.11,0.00165,91.58,,,,,,,
1590.13,0.00163,88.22,,,,,,,
1590.15,0.0016,84.71,,,,,,,
1590.18,0.00158,81.32,,,,,,,
1590.21,0.00155,77.79,,,,,,,
1590.23,0.00153,74.17,,,,,,,
1590.26,0.0015,70.77,,,,,,,
1590.29,0.00148,67.41,,,,,,,
1590.32,0.00145,64.05,,,,,,,
1590.34,0.00143,60.76,,,,,,,
1590.37,0.0014,57.5,,,,,,,
1590.4,0.00138,54.37,,,,,,,
1590.42,0.00135,51.35,,,,,,,
1590.45,0.00132,48.22,,,,,,,
1590.48,0.0013,45.13,,,,,,,
1590.5,0.00127,42.06,,,,,,,
1590.53,0.00125,38.69,,,,,,,
1590.56,0.00122,35.25,,,,,,,
1590.59,0.0012,31.81,,,,,,,
1590.62,0.00117,28.43,,,,,,,
1590.65,0.00115,25.1,,,,,,,
1590.68,0.00112,21.44,,,,,,,
1590.71,0.0011,17.62,,,,,,,
1590.74,0.00107,13.86,,,,,,,
1590.77,0.00105,10.4,,,,,,,
1590.79,0.00102,7.25,,,,,,,
1590.82,0.001,3.77,,,,,,,
1590.85,0.00097,0.04,,,,,,,
1590.88,0.00094,-3.75,,,,,,,
1590.91,0.00092,-6.81,,,,,,,
1590.93,0.00089,-9.67,,,,,,,
1590.95,0.00087,-12.33,,,,,,,
1590.98,0.00084,-14.89,,,,,,,
1591.0,0.00082,-17.15,,,,,,,
1591.03,0.00079,-18.46,,,,,,,
1591.12,0.00077,-18.17,,,,,,,
1591.18,0.00074,-20.11,,,,,,,
1591.23,0.00072,-22.97,,,,,,,
1591.26,0.00069,-25.7,,,,,,,
1591.3,0.00067,-28.52,,,,,,,
1591.33,0.00064,-31.17,,,,,,,
1591.36,0.00062,-34.1,,,,,,,
1591.38,0.00059,-36.9,,,,,,,
1591.4,0.00056,-39.81,,,,,,,
1591.42,0.00054,-42.53,,,,,,,
1591.44,0.00051,-45.62,,,,,,,
1591.46,0.00049,-48.82,,,,,,,
1591.47,0.00046,-51.59,,,,,,,
1591.49,0.00044,-54.15,,,,,,,
1591.5,0.00041,-56.75,,,,,,,
1591.52,0.00038,-59.37,,,,,,,
1591.54,0.00036,-62.11,,,,,,,
1591.55,0.00033,-64.96,,,,,,,
1591.57,0.00031,-67.81,,,,,,,
1591.58,0.00028,-70.24,,,,,,,
1591.6,0.00025,-72.86,,,,,,,
1591.62,0.00023,-75.22,,,,,,,
1591.63,0.0002,-77.47,,,,,,,
1591.65,0.00018,-79.69,,,,,,,
1591.66,0.00015,-81.84,,,,,,,
1591.68,0.00013,-83.94,,,,,,,
1591.69,0.0001,-85.94,,,,,,,
1591.71,8e-05,-87.68,,,,,,,
1591.73,5e-05,-89.65,,,,,,,
1591.75,3e-05,-91.47,,,,,,,
1591.77,-0.0,-93.24,,,,,,,
1591.79,-3e-05,-95.02,,,,,,,
1591.81,-5e-05,-96.6,,,,,,,
1591.84,-8e-05,-98.19,,,,,,,
1591.86,-0.0001,-99.78,,,,,,,
1591.89,-0.00013,-101.1,,,,,,,
1591.91,-0.00015,-102.53,,,,,,,
1591.94,-0.00018,-103.97,,,,,,,
1591.96,-0.0002,-105.43,,,,,,,
1591.99,-0.00023,-106.7,,,,,,,
1592.01,-0.00026,-107.96,,,,,,,
1592.04,-0.00028,-109.2,,,,,,,
1592.06,-0.00031,-110.35,,,,,,,
1592.08,-0.00033,-111.55,,,,,,,
1592.11,-0.00036,-112.79,,,,,,,
1592.14,-0.00038,-114.08,,,,,,,
1592.17,-0.00041,-115.43,,,,,,,
1592.2,-0.00043,-116.9,,,,,,,
1592.22,-0.00046,-118.22,,,,,,,
1592.25,-0.00048,-119.41,,,,,,,
1592.27,-0.00051,-120.72,,,,,,,
1592.3,-0.00054,-122.02,,,,,,,
1592.33,-0.00056,-123.31,,,,,,,
1592.35,-0.00059,-124.56,,,,,,,
1592.38,-0.00061,-126.04,,,,,,,
1592.41,-0.00064,-127.47,,,,,,,
1592.43,-0.00066,-128.66,,,,,,,
1592.45,-0.00069,-129.78,,,,,,,
1592.48,-0.00071,-131.08,,,,,,,
1592.51,-0.00074,-132.3,,,,,,,
1592.53,-0.00076,-133.49,,,,,,,
1592.55,-0.00079,-134.58,,,,,,,
1592.58,-0.00082,-135.7,,,,,,,
1592.6,-0.00084,-136.77,,,,,,,
1592.64,-0.00087,-138.04,,,,,,,
1592.67,-0.00089,-139.4,,,,,,,
1592.69,-0.00092,-140.7,,,,,,,
1592.72,-0.00094,-141.98,,,,,,,
1592.75,-0.00097,-143.29,,,,,,,
1592.78,-0.00099,-144.76,,,,,,,
1592.8,-0.00102,-146.1,,,,,,,
1592.83,-0.00104,-147.4,,,,,,,
1592.85,-0.00107,-148.66,,,,,,,
1592.87,-0.0011,-149.75,,,,,,,
1592.89,-0.00112,-150.86,,,,,,,
1592.92,-0.00115,-151.96,,,,,,,
1592.94,-0.00117,-152.92,,,,,,,
1592.96,-0.0012,-153.87,,,,,,,
1592.99,-0.00122,-154.72,,,,,,,
1593.01,-0.00125,-155.52,,,,,,,
1593.03,-0.00127,-156.22,,,,,,,
1593.06,-0.0013,-156.97,,,,,,,
1593.08,-0.00133,-157.71,,,,,,,
1593.11,-0.00135,-158.3,,,,,,,
1593.13,-0.00138,-158.91,,,,,,,
1593.16,-0.0014,-159.42,,,,,,,
1593.19,-0.00143,-159.94,,,,,,,
1593.21,-0.00145,-160.54,,,,,,,
1593.24,-0.00148,-161.2,,,,,,,
1593.26,-0.0015,-161.71,,,,,,,
1593.29,-0.00153,-162.16,,,,,,,
1593.31,-0.00155,-162.61,,,,,,,
1593.33,-0.00158,-163.04,,,,,,,
1593.35,-0.00161,-163.35,,,,,,,
1593.38,-0.00163,-163.65,,,,,,,
1593.41,-0.00166,-164.0,,,,,,,
1593.43,-0.00168,-164.27,,,,,,,
1593.46,-0.00171,-164.57,,,,,,,
1593.48,-0.00173,-164.9,,,,,,,
1593.51,-0.00176,-165.19,,,,,,,
1593.53,-0.00178,-165.49,,,,,,,
1593.56,-0.00181,-165.76,,,,,,,
1593.58,-0.00184,-166.0,,,,,,,
1593.61,-0.00186,-166.31,,,,,,,
1593.64,-0.00189,-166.61,,,,,,,
1593.67,-0.00191,-166.89,,,,,,,
1593.69,-0.00194,-167.01,,,,,,,
1593.72,-0.00196,-166.72,,,,,,,
1593.75,-0.00199,-165.23,,,,,,,
1593.86,-0.00196,-148.04,,,,,,,
1593.89,-0.00194,-141.91,,,,,,,
1593.91,-0.00191,-136.87,,,,,,,
1593.93,-0.00189,-131.92,,,,,,,
1593.95,-0.00186,-126.89,,,,,,,
1593.97,-0.00184,-122.52,,,,,,,
1593.99,-0.00181,-118.28,,,,,,,
1594.01,-0.00179,-113.94,,,,,,,
1594.03,-0.00176,-109.84,,,,,,,
1594.04,-0.00173,-106.07,,,,,,,
1594.07,-0.00171,-102.08,,,,,,,
1594.09,-0.00168,-98.37,,,,,,,
1594.11,-0.00166,-94.87,,,,,,,
1594.13,-0.00163,-91.04,,,,,,,
1594.15,-0.00161,-87.6,,,,,,,
1594.17,-0.00158,-84.56,,,,,,,
1594.2,-0.00155,-81.3,,,,,,,
1594.22,-0.00153,-77.73,,,,,,,
1594.25,-0.0015,-74.12,,,,,,,
1594.28,-0.00148,-70.45,,,,,,,
1594.31,-0.00145,-66.81,,,,,,,
1594.34,-0.00143,-63.42,,,,,,,
1594.37,-0.0014,-59.93,,,,,,,
1594.4,-0.00138,-55.79,,,,,,,
1594.43,-0.00135,-52.21,,,,,,,
1594.46,-0.00132,-48.97,,,,,,,
1594.48,-0.0013,-45.83,,,,,,,
1594.5,-0.00127,-42.59,,,,,,,
1594.53,-0.00125,-39.85,,,,,,,
1594.55,-0.00122,-36.61,,,,,,,
1594.58,-0.0012,-33.41,,,,,,,
1594.61,-0.00117,-30.37,,,,,,,
1594.64,-0.00115,-26.9,,,,,,,
1594.67,-0.00112,-23.06,,,,,,,
1594.7,-0.00109,-19.67,,,,,,,
1594.73,-0.00107,-16.75,,,,,,,
1594.75,-0.00104,-13.83,,,,,,,
1594.78,-0.00102,-10.9,,,,,,,
1594.8,-0.00099,-8.01,,,,,,,
1594.83,-0.00097,-5.18,,,,,,,
1594.86,-0.00094,-1.56,,,,,,,
1594.89,-0.00092,1.55,,,,,,,
1594.92,-0.00089,4.88,,,,,,,
1594.95,-0.00086,8.22,,,,,,,
1594.97,-0.00084,11.07,,,,,,,
1595.0,-0.00081,13.93,,,,,,,
1595.02,-0.00079,16.69,,,,,,,
1595.05,-0.00076,19.67,,,,,,,
1595.08,-0.00074,22.45,,,,,,,
1595.11,-0.00071,25.0,,,,,,,
1595.15,-0.00069,27.08,,,,,,,
1595.19,-0.00066,29.47,,,,,,,
1595.24,-0.00064,32.33,,,,,,,
1595.27,-0.00061,35.02,,,,,,,
1595.31,-0.00059,37.91,,,,,,,
1595.33,-0.00056,41.41,,,,,,,
1595.35,-0.00054,44.27,,,,,,,
1595.37,-0.00051,47.05,,,,,,,
1595.39,-0.00049,49.91,,,,,,,
1595.41,-0.00046,52.57,,,,,,,
1595.44,-0.00043,55.02,,,,,,,
1595.46,-0.00041,57.4,,,,,,,
1595.49,-0.00038,59.63,,,,,,,
1595.52,-0.00036,61.91,,,,,,,
1595.55,-0.00033,64.01,,,,,,,
1595.58,-0.00031,66.22,,,,,,,
1595.61,-0.00028,68.28,,,,,,,
1595.64,-0.00026,70.44,,,,,,,
3990.3,-0.00023,76.88,,,,,,,
3990.33,-0.00021,78.71,,,,,,,
3990.36,-0.00018,80.44,,,,,,,
3990.38,-0.00016,82.23,,,,,,,
3990.41,-0.00013,84.15,,,,,,,
3990.44,-0.00011,86.31,,,,,,,
3990.46,-8e-05,88.89,,,,,,,
3990.48,-6e-05,91.2,,,,,,,
3990.5,-3e-05,93.54,,,,,,,
3990.52,-0.0,96.21,,,,,,,
3990.53,2e-05,98.67,,,,,,,
3990.55,5e-05,101.19,,,,,,,
3990.57,7e-05,103.73,,,,,,,
3990.59,0.0001,106.16,,,,,,,
3990.6,0.00013,108.35,,,,,,,
3990.62,0.00015,110.39,,,,,,,
3990.64,0.00018,112.59,,,,,,,
3990.66,0.0002,114.52,,,,,,,
3990.67,0.00023,116.28,,,,,,,
3990.69,0.00025,118.06,,,,,,,
3990.71,0.00028,119.88,,,,,,,
3990.73,0.00031,121.51,,,,,,,
3990.75,0.00033,122.92,,,,,,,
3990.77,0.00036,124.23,,,,,,,
3990.79,0.00038,125.42,,,,,,,
3990.81,0.00041,126.7,,,,,,,
3990.84,0.00043,127.81,,,,,,,
3990.86,0.00046,128.78,,,,,,,
3990.88,0.00049,129.56,,,,,,,
3990.9,0.00051,130.3,,,,,,,
3990.92,0.00054,131.16,,,,,,,
3990.95,0.00056,131.97,,,,,,,
3990.98,0.00059,132.7,,,,,,,
3991.01,0.00061,133.52,,,,,,,
3991.03,0.00064,134.25,,,,,,,
3991.06,0.00066,135.14,,,,,,,
3991.09,0.00069,136.1,,,,,,,
3991.12,0.00071,137.08,,,,,,,
3991.14,0.00074,138.01,,,,,,,
3991.17,0.00077,139.05,,,,,,,
3991.2,0.00079,140.17,,,,,,,
3991.22,0.00082,141.3,,,,,,,
3991.25,0.00084,142.48,,,,,,,
3991.28,0.00087,143.53,,,,,,,
3991.3,0.00089,144.64,,,,,,,
3991.33,0.00092,145.77,,,,,,,
3991.35,0.00094,146.81,,,,,,,
3991.37,0.00097,147.78,,,,,,,
3991.4,0.00099,148.86,,,,,,,
3991.42,0.00102,149.8,,,,,,,
3991.45,0.00105,150.75,,,,,,,
3991.47,0.00107,151.66,,,,,,,
3991.49,0.0011,152.46,,,,,,,
3991.52,0.00112,153.25,,,,,,,
3991.54,0.00115,154.06,,,,,,,
3991.57,0.00117,154.77,,,,,,,
3991.59,0.0012,155.38,,,,,,,
3991.62,0.00122,155.96,,,,,,,
3991.64,0.00125,156.5,,,,,,,
3991.66,0.00128,156.86,,,,,,,
3991.68,0.0013,157.29,,,,,,,
3991.71,0.00133,157.62,,,,,,,
3991.74,0.00135,157.96,,,,,,,
3991.77,0.00138,158.31,,,,,,,
3991.8,0.00141,158.79,,,,,,,
3991.83,0.00143,159.28,,,,,,,
3991.85,0.00146,159.77,,,,,,,
3991.88,0.00148,160.26,,,,,,,
3991.9,0.00151,160.8,,,,,,,
3991.93,0.00153,161.32,,,,,,,
3991.95,0.00156,161.92,,,,,,,
3991.98,0.00158,162.49,,,,,,,
3992.0,0.00161,163.01,,,,,,,
3992.02,0.00164,163.5,,,,,,,
3992.04,0.00166,163.86,,,,,,,
3992.06,0.00169,164.2,,,,,,,
3992.08,0.00171,164.43,,,,,,,
3992.11,0.00174,164.56,,,,,,,
3992.13,0.00176,164.54,,,,,,,
3992.16,0.00179,164.52,,,,,,,
3992.18,0.00181,164.43,,,,,,,
3992.21,0.00184,164.34,,,,,,,
3992.23,0.00187,164.14,,,,,,,
3992.25,0.00189,163.93,,,,,,,
3992.28,0.00192,163.68,,,,,,,
3992.3,0.00194,163.42,,,,,,,
3992.33,0.00197,162.95,,,,,,,
3992.36,0.00199,161.59,,,,,,,
3992.49,0.00197,141.57,,,,,,,
3992.51,0.00194,136.17,,,,,,,
3992.54,0.00192,131.4,,,,,,,
3992.56,0.00189,126.28,,,,,,,
3992.58,0.00186,121.87,,,,,,,
3992.6,0.00184,117.4,,,,,,,
3992.62,0.00181,113.22,,,,,,,
3992.63,0.00179,109.25,,,,,,,
3992.66,0.00176,105.11,,,,,,,
3992.68,0.00174,101.23,,,,,,,
3992.7,0.00171,97.46,,,,,,,
3992.72,0.00169,93.68,,,,,,,
3992.75,0.00166,89.71,,,,,,,
3992.77,0.00163,85.45,,,,,,,
3992.81,0.00161,80.84,,,,,,,
3992.84,0.00158,76.18,,,,,,,
3992.88,0.00156,70.92,,,,,,,
3992.91,0.00153,66.49,,,,,,,
3992.93,0.00151,62.45,,,,,,,
3992.96,0.00148,58.61,,,,,,,
3992.98,0.00146,55.1,,,,,,,
3993.0,0.00143,51.72,,,,,,,
3993.03,0.0014,48.5,,,,,,,
3993.05,0.00138,45.32,,,,,,,
3993.07,0.00135,42.05,,,,,,,
3993.1,0.00133,39.0,,,,,,,
3993.12,0.0013,36.0,,,,,,,
3993.15,0.00128,33.03,,,,,,,
3993.17,0.00125,30.15,,,,,,,
3993.2,0.00123,27.07,,,,,,,
3993.22,0.0012,23.98,,,,,,,
3993.26,0.00118,20.65,,,,,,,
3993.29,0.00115,17.38,,,,,,,
3993.31,0.00113,14.42,,,,,,,
3993.34,0.0011,11.68,,,,,,,
3993.36,0.00107,8.81,,,,,,,
3993.39,0.00105,5.73,,,,,,,
3993.42,0.00102,2.8,,,,,,,
3993.44,0.001,-0.16,,,,,,,
3993.47,0.00097,-2.96,,,,,,,
3993.5,0.00095,-5.75,,,,,,,
3993.52,0.00092,-8.4,,,,,,,
3993.55,0.0009,-11.3,,,,,,,
3993.58,0.00087,-14.14,,,,,,,
3993.62,0.00084,-16.03,,,,,,,
3993.69,0.00082,-16.73,,,,,,,
3993.78,0.00079,-19.69,,,,,,,
3993.82,0.00077,-22.31,,,,,,,
3993.85,0.00074,-24.79,,,,,,,
3993.88,0.00072,-27.54,,,,,,,
3993.91,0.00069,-30.03,,,,,,,
3993.95,0.00067,-32.88,,,,,,,
3993.97,0.00064,-35.76,,,,,,,
3994.0,0.00062,-38.81,,,,,,,
3994.02,0.00059,-41.87,,,,,,,
3994.04,0.00057,-45.11,,,,,,,
3994.06,0.00054,-48.46,,,,,,,
3994.07,0.00051,-51.23,,,,,,,
3994.09,0.00049,-53.96,,,,,,,
3994.1,0.00046,-56.71,,,,,,,
3994.12,0.00044,-59.44,,,,,,,
3994.14,0.00041,-62.54,,,,,,,
3994.16,0.00039,-65.39,,,,,,,
3994.17,0.00036,-68.01,,,,,,,
3994.18,0.00033,-70.62,,,,,,,
3994.2,0.00031,-73.22,,,,,,,
3994.21,0.00028,-75.83,,,,,,,
3994.23,0.00026,-78.31,,,,,,,
3994.25,0.00023,-80.75,,,,,,,
3994.26,0.0002,-82.93,,,,,,,
3994.28,0.00018,-85.1,,,,,,,
3994.29,0.00015,-87.23,,,,,,,
3994.31,0.00012,-89.42,,,,,,,
3994.33,0.0001,-91.43,,,,,,,
3994.35,7e-05,-93.05,,,,,,,
3994.37,5e-05,-94.72,,,,,,,
3994.38,2e-05,-96.27,,,,,,,
3994.4,-0.0,-97.71,,,,,,,
3994.43,-3e-05,-99.24,,,,,,,
3994.45,-5e-05,-100.52,,,,,,,
3994.47,-8e-05,-101.67,,,,,,,
3994.49,-0.0001,-102.88,,,,,,,
3994.52,-0.00013,-104.11,,,,,,,
3994.55,-0.00015,-105.36,,,,,,,
3994.57,-0.00018,-106.61,,,,,,,
3994.6,-0.00021,-107.62,,,,,,,
3994.63,-0.00023,-108.83,,,,,,,
3994.66,-0.00026,-110.17,,,,,,,
3994.69,-0.00028,-111.54,,,,,,,
3994.71,-0.00031,-112.88,,,,,,,
3994.74,-0.00033,-114.21,,,,,,,
3994.76,-0.00036,-115.44,,,,,,,
3994.79,-0.00038,-116.93,,,,,,,
3994.81,-0.00041,-118.3,,,,,,,
3994.84,-0.00043,-119.62,,,,,,,
3994.87,-0.00046,-120.95,,,,,,,
3994.89,-0.00049,-122.3,,,,,,,
3994.92,-0.00051,-123.66,,,,,,,
3994.94,-0.00054,-124.94,,,,,,,
3994.97,-0.00056,-126.35,,,,,,,
3995.0,-0.00059,-127.79,,,,,,,
3995.03,-0.00061,-129.19,,,,,,,
3995.06,-0.00064,-130.56,,,,,,,
3995.08,-0.00066,-131.87,,,,,,,
3995.11,-0.00069,-133.33,,,,,,,
3995.13,-0.00072,-134.7,,,,,,,
3995.16,-0.00074,-135.97,,,,,,,
3995.18,-0.00077,-137.19,,,,,,,
3995.2,-0.00079,-138.36,,,,,,,
3995.23,-0.00082,-139.68,,,,,,,
3995.25,-0.00084,-140.75,,,,,,,
3995.27,-0.00087,-141.78,,,,,,,
3995.3,-0.00089,-142.88,,,,,,,
3995.32,-0.00092,-143.85,,,,,,,
3995.35,-0.00094,-144.67,,,,,,,
3995.37,-0.00097,-145.57,,,,,,,
3995.4,-0.001,-146.47,,,,,,,
3995.42,-0.00102,-147.23,,,,,,,
3995.44,-0.00105,-148.03,,,,,,,
3995.47,-0.00107,-148.78,,,,,,,
3995.49,-0.0011,-149.47,,,,,,,
3995.52,-0.00112,-150.09,,,,,,,
3995.54,-0.00115,-150.65,,,,,,,
3995.57,-0.00117,-151.28,,,,,,,
3995.59,-0.0012,-151.88,,,,,,,
3995.62,-0.00122,-152.47,,,,,,,
3995.65,-0.00125,-153.21,,,,,,,
3995.68,-0.00128,-153.87,,,,,,,
3995.7,-0.0013,-154.59,,,,,,,
3995.73,-0.00133,-155.23,,,,,,,
3995.76,-0.00135,-155.99,,,,,,,
3995.78,-0.00138,-156.66,,,,,,,
3995.81,-0.0014,-157.47,,,,,,,
3995.83,-0.00143,-158.19,,,,,,,
3995.86,-0.00145,-159.08,,,,,,,
3995.89,-0.00148,-159.95,,,,,,,
3995.91,-0.0015,-160.8,,,,,,,
3995.94,-0.00153,-161.59,,,,,,,
3995.96,-0.00155,-162.36,,,,,,,
3995.98,-0.00158,-163.04,,,,,,,
3996.0,-0.00161,-163.65,,,,,,,
3996.03,-0.00163,-164.23,,,,,,,
3996.05,-0.00166,-164.82,,,,,,,
3996.08,-0.00168,-165.33,,,,,,,
3996.1,-0.00171,-165.8,,,,,,,
3996.12,-0.00173,-166.2,,,,,,,
3996.14,-0.00176,-166.5,,,,,,,
3996.17,-0.00178,-166.82,,,,,,,
3996.2,-0.00181,-167.01,,,,,,,
3996.22,-0.00183,-167.18,,,,,,,
3996.24,-0.00186,-167.35,,,,,,,
3996.27,-0.00189,-167.52,,,,,,,
3996.29,-0.00191,-167.61,,,,,,,
3996.31,-0.00194,-167.67,,,,,,,
3996.33,-0.00196,-167.59,,,,,,,
3996.36,-0.00199,-166.99,,,,,,,
3996.39,-0.00201,-165.01,,,,,,,
3996.49,-0.00199,-147.24,,,,,,,
3996.51,-0.00196,-141.92,,,,,,,
3996.53,-0.00194,-136.68,,,,,,,
3996.55,-0.00191,-131.71,,,,,,,
3996.57,-0.00188,-126.47,,,,,,,
3996.59,-0.00186,-122.14,,,,,,,
3996.61,-0.00183,-118.44,,,,,,,
3996.62,-0.00181,-114.61,,,,,,,
3996.64,-0.00178,-110.78,,,,,,,
3996.66,-0.00176,-107.01,,,,,,,
3996.68,-0.00173,-103.02,,,,,,,
3996.7,-0.00171,-99.18,,,,,,,
3996.72,-0.00168,-95.55,,,,,,,
3996.74,-0.00165,-92.52,,,,,,,
3996.76,-0.00163,-89.28,,,,,,,
3996.79,-0.0016,-85.93,,,,,,,
3996.81,-0.00158,-82.36,,,,,,,
3996.84,-0.00155,-78.53,,,,,,,
3996.87,-0.00153,-74.8,,,,,,,
3996.9,-0.0015,-71.5,,,,,,,
3996.92,-0.00148,-68.15,,,,,,,
3996.95,-0.00145,-64.99,,,,,,,
3996.98,-0.00143,-61.65,,,,,,,
3997.01,-0.0014,-57.85,,,,,,,
3997.04,-0.00138,-53.86,,,,,,,
3997.07,-0.00135,-50.24,,,,,,,
3997.09,-0.00132,-47.16,,,,,,,
3997.12,-0.0013,-43.59,,,,,,,
3997.15,-0.00127,-39.74,,,,,,,
3997.18,-0.00125,-36.11,,,,,,,
3997.21,-0.00122,-32.59,,,,,,,
3997.24,-0.0012,-29.28,,,,,,,
3997.26,-0.00117,-25.52,,,,,,,
3997.29,-0.00115,-22.78,,,,,,,
3997.31,-0.00112,-19.66,,,,,,,
3997.34,-0.00109,-16.39,,,,,,,
3997.36,-0.00107,-13.88,,,,,,,
3997.39,-0.00104,-10.92,,,,,,,
3997.41,-0.00102,-7.88,,,,,,,
3997.44,-0.00099,-4.79,,,,,,,
3997.47,-0.00097,-1.52,,,,,,,
3997.5,-0.00094,1.56,,,,,,,
3997.53,-0.00092,4.43,,,,,,,
3997.55,-0.00089,7.38,,,,,,,
3997.58,-0.00086,10.45,,,,,,,
3997.6,-0.00084,12.68,,,,,,,
3997.63,-0.00081,15.14,,,,,,,
3997.65,-0.00079,17.82,,,,,,,
3997.69,-0.00076,21.27,,,,,,,
3997.72,-0.00074,23.79,,,,,,,
3997.76,-0.00071,26.48,,,,,,,
3997.82,-0.00069,29.73,,,,,,,
3997.86,-0.00066,32.5,,,,,,,
3997.9,-0.00064,35.53,,,,,,,
3997.93,-0.00061,38.54,,,,,,,
3997.95,-0.00059,41.9,,,,,,,
3997.97,-0.00056,44.65,,,,,,,
3997.99,-0.00053,47.68,,,,,,,
3998.01,-0.00051,50.72,,,,,,,
3998.04,-0.00048,53.63,,,,,,,
3998.06,-0.00046,56.23,,,,,,,
3998.08,-0.00043,58.48,,,,,,,
3998.11,-0.00041,60.67,,,,,,,
3998.14,-0.00038,62.79,,,,,,,
3998.16,-0.00035,64.86,,,,,,,
3998.19,-0.00033,66.81,,,,,,,
3998.22,-0.0003,68.49,,,,,,,
3998.25,-0.00028,70.11,,,,,,,
3998.28,-0.00025,71.94,,,,,,,
7994.72,-0.00023,76.64,,,,,,,
7994.75,-0.0002,78.79,,,,,,,
7994.77,-0.00018,80.81,,,,,,,
7994.8,-0.00015,82.77,,,,,,,
7994.82,-0.00013,84.59,,,,,,,
7994.85,-0.0001,86.62,,,,,,,
7994.87,-8e-05,89.12,,,,,,,
7994.89,-5e-05,91.79,,,,,,,
7994.91,-3e-05,94.21,,,,,,,
7994.93,0.0,96.73,,,,,,,
7994.94,3e-05,99.22,,,,,,,
7994.96,5e-05,101.67,,,,,,,
7994.98,8e-05,104.08,,,,,,,
7994.99,0.0001,106.43,,,,,,,
7995.01,0.00013,108.76,,,,,,,
7995.03,0.00016,110.8,,,,,,,
7995.04,0.00018,112.92,,,,,,,
7995.06,0.00021,114.93,,,,,,,
7995.08,0.00023,116.94,,,,,,,
7995.1,0.00026,118.75,,,,,,,
7995.12,0.00028,120.61,,,,,,,
7995.14,0.00031,122.14,,,,,,,
7995.16,0.00033,123.74,,,,,,,
7995.18,0.00036,125.19,,,,,,,
7995.2,0.00039,126.57,,,,,,,
7995.23,0.00041,128.02,,,,,,,
7995.25,0.00044,129.33,,,,,,,
7995.28,0.00046,130.61,,,,,,,
7995.3,0.00049,131.82,,,,,,,
7995.32,0.00051,132.89,,,,,,,
7995.34,0.00054,133.91,,,,,,,
7995.37,0.00056,134.87,,,,,,,
7995.39,0.00059,135.74,,,,,,,
7995.41,0.00062,136.46,,,,,,,
7995.43,0.00064,137.14,,,,,,,
7995.46,0.00067,137.85,,,,,,,
7995.49,0.00069,138.43,,,,,,,
7995.51,0.00072,139.1,,,,,,,
7995.54,0.00074,139.9,,,,,,,
7995.58,0.00077,140.96,,,,,,,
7995.61,0.00079,141.85,,,,,,,
7995.63,0.00082,142.88,,,,,,,
7995.65,0.00084,143.76,,,,,,,
7995.68,0.00087,144.83,,,,,,,
7995.71,0.0009,146.02,,,,,,,
7995.73,0.00092,147.06,,,,,,,
7995.75,0.00095,148.0,,,,,,,
7995.78,0.00097,149.05,,,,,,,
7995.8,0.001,149.99,,,,,,,
7995.83,0.00103,150.78,,,,,,,
7995.85,0.00105,151.57,,,,,,,
7995.87,0.00108,152.22,,,,,,,
7995.89,0.0011,152.79,,,,,,,
7995.91,0.00113,153.28,,,,,,,
7995.93,0.00115,153.82,,,,,,,
7995.96,0.00118,154.2,,,,,,,
7995.99,0.0012,154.46,,,,,,,
7996.02,0.00123,154.69,,,,,,,
7996.05,0.00125,155.08,,,,,,,
7996.08,0.00128,155.63,,,,,,,
7996.11,0.00131,156.32,,,,,,,
7996.13,0.00133,157.01,,,,,,,
7996.16,0.00136,157.75,,,,,,,
7996.18,0.00138,158.45,,,,,,,
7996.21,0.00141,159.15,,,,,,,
7996.23,0.00143,159.85,,,,,,,
7996.25,0.00146,160.52,,,,,,,
7996.28,0.00148,161.13,,,,,,,
7996.3,0.00151,161.65,,,,,,,
7996.32,0.00153,162.11,,,,,,,
7996.34,0.00156,162.6,,,,,,,
7996.36,0.00158,162.97,,,,,,,
7996.39,0.00161,163.26,,,,,,,
7996.42,0.00164,163.52,,,,,,,
7996.44,0.00166,163.7,,,,,,,
7996.47,0.00169,163.84,,,,,,,
7996.49,0.00171,164.05,,,,,,,
7996.52,0.00174,164.19,,,,,,,
7996.54,0.00176,164.25,,,,,,,
7996.56,0.00179,164.31,,,,,,,
7996.59,0.00181,164.32,,,,,,,
7996.61,0.00184,164.3,,,,,,,
7996.64,0.00187,164.28,,,,,,,
7996.66,0.00189,164.19,,,,,,,
7996.69,0.00192,164.12,,,,,,,
7996.71,0.00194,164.02,,,,,,,
7996.74,0.00197,163.73,,,,,,,
7996.77,0.00199,162.33,,,,,,,
7996.9,0.00197,140.89,,,,,,,
7996.92,0.00194,136.04,,,,,,,
7996.94,0.00192,131.33,,,,,,,
7996.96,0.00189,126.82,,,,,,,
7996.98,0.00187,122.73,,,,,,,
7997.0,0.00184,118.49,,,,,,,
7997.01,0.00182,114.49,,,,,,,
7997.03,0.00179,110.44,,,,,,,
7997.05,0.00177,106.5,,,,,,,
7997.07,0.00174,103.04,,,,,,,
7997.09,0.00171,99.31,,,,,,,
7997.11,0.00169,95.65,,,,,,,
7997.14,0.00166,91.95,,,,,,,
7997.17,0.00164,87.72,,,,,,,
7997.19,0.00161,83.83,,,,,,,
7997.22,0.00159,80.39,,,,,,,
7997.25,0.00156,76.67,,,,,,,
7997.27,0.00154,73.15,,,,,,,
7997.3,0.00151,69.36,,,,,,,
7997.33,0.00149,65.49,,,,,,,
7997.36,0.00146,62.13,,,,,,,
7997.38,0.00143,58.88,,,,,,,
7997.41,0.00141,55.69,,,,,,,
7997.44,0.00138,52.0,,,,,,,
7997.47,0.00136,48.23,,,,,,,
7997.5,0.00133,44.5,,,,,,,
7997.53,0.00131,40.76,,,,,,,
7997.56,0.00128,37.16,,,,,,,
7997.58,0.00126,33.7,,,,,,,
7997.61,0.00123,30.27,,,,,,,
7997.64,0.00121,26.86,,,,,,,
7997.66,0.00118,23.61,,,,,,,
7997.69,0.00116,20.17,,,,,,,
7997.72,0.00113,16.27,,,,,,,
7997.75,0.0011,12.85,,,,,,,
7997.78,0.00108,9.26,,,,,,,
7997.81,0.00105,5.55,,,,,,,
7997.83,0.00103,2.38,,,,,,,
7997.86,0.001,-0.64,,,,,,,
7997.88,0.00098,-3.54,,,,,,,
7997.91,0.00095,-6.39,,,,,,,
7997.93,0.00092,-9.26,,,,,,,
7997.96,0.0009,-12.18,,,,,,,
7997.98,0.00087,-14.8,,,,,,,
7998.01,0.00085,-16.8,,,,,,,
7998.06,0.00082,-17.87,,,,,,,
7998.17,0.0008,-19.46,,,,,,,
7998.22,0.00077,-22.31,,,,,,,
7998.26,0.00075,-25.02,,,,,,,
7998.29,0.00072,-27.97,,,,,,,
7998.32,0.0007,-30.79,,,,,,,
7998.35,0.00067,-33.69,,,,,,,
7998.38,0.00065,-36.79,,,,,,,
7998.41,0.00062,-39.84,,,,,,,
7998.43,0.00059,-42.78,,,,,,,
7998.45,0.00057,-45.95,,,,,,,
7998.46,0.00054,-49.29,,,,,,,
7998.48,0.00052,-52.01,,,,,,,
7998.49,0.00049,-54.72,,,,,,,
7998.51,0.00047,-57.36,,,,,,,
7998.52,0.00044,-59.85,,,,,,,
7998.54,0.00042,-62.58,,,,,,,
7998.55,0.00039,-65.15,,,,,,,
7998.56,0.00036,-67.57,,,,,,,
7998.58,0.00034,-70.09,,,,,,,
7998.6,0.00031,-73.1,,,,,,,
7998.61,0.00029,-75.85,,,,,,,
7998.63,0.00026,-78.15,,,,,,,
7998.64,0.00023,-80.33,,,,,,,
7998.66,0.00021,-82.52,,,,,,,
7998.67,0.00018,-84.63,,,,,,,
7998.69,0.00016,-86.94,,,,,,,
7998.71,0.00013,-89.0,,,,,,,
7998.73,0.0001,-90.91,,,,,,,
7998.75,8e-05,-92.68,,,,,,,
7998.76,5e-05,-94.48,,,,,,,
7998.78,3e-05,-96.04,,,,,,,
7998.8,0.0,-97.6,,,,,,,
7998.83,-2e-05,-99.01,,,,,,,
7998.85,-5e-05,-100.4,,,,,,,
7998.87,-8e-05,-101.7,,,,,,,
7998.9,-0.0001,-102.98,,,,,,,
7998.92,-0.00013,-104.21,,,,,,,
7998.95,-0.00015,-105.48,,,,,,,
7998.98,-0.00018,-106.72,,,,,,,
7999.0,-0.0002,-107.91,,,,,,,
7999.03,-0.00023,-109.05,,,,,,,
7999.06,-0.00025,-110.26,,,,,,,
7999.08,-0.00028,-111.53,,,,,,,
7999.11,-0.0003,-112.81,,,,,,,
7999.14,-0.00033,-114.29,,,,,,,
7999.17,-0.00036,-115.68,,,,,,,
7999.19,-0.00038,-117.15,,,,,,,
7999.22,-0.00041,-118.69,,,,,,,
7999.25,-0.00043,-120.02,,,,,,,
7999.27,-0.00046,-121.27,,,,,,,
7999.29,-0.00048,-122.43,,,,,,,
7999.31,-0.00051,-123.64,,,,,,,
7999.34,-0.00053,-124.75,,,,,,,
7999.36,-0.00056,-126.06,,,,,,,
7999.39,-0.00058,-127.35,,,,,,,
7999.42,-0.00061,-128.59,,,,,,,
7999.45,-0.00063,-129.71,,,,,,,
7999.47,-0.00066,-130.91,,,,,,,
7999.49,-0.00069,-131.97,,,,,,,
7999.52,-0.00071,-132.93,,,,,,,
7999.54,-0.00074,-134.11,,,,,,,
7999.57,-0.00076,-135.34,,,,,,,
7999.6,-0.00079,-136.46,,,,,,,
7999.62,-0.00081,-137.53,,,,,,,
7999.65,-0.00084,-138.57,,,,,,,
7999.67,-0.00086,-139.74,,,,,,,
7999.7,-0.00089,-140.91,,,,,,,
7999.73,-0.00091,-142.1,,,,,,,
7999.75,-0.00094,-143.17,,,,,,,
7999.78,-0.00097,-144.23,,,,,,,
7999.8,-0.00099,-145.35,,,,,,,
7999.83,-0.00102,-146.47,,,,,,,
7999.84,-0.00103,-146.9,,,,,,,
7999.86,-0.00104,-147.48,,,,,,,
7999.88,-0.00107,-148.33,,,,,,,
7999.9,-0.00109,-149.2,,,,,,,
7999.92,-0.00112,-149.98,,,,,,,
7999.94,-0.00115,-150.77,,,,,,,
7999.96,-0.00117,-151.32,,,,,,,
7999.99,-0.0012,-151.85,,,,,,,
8000.01,-0.00122,-152.35,,,,,,,
8000.04,-0.00125,-152.79,,,,,,,
8000.06,-0.00127,-153.12,,,,,,,
8000.09,-0.0013,-153.48,,,,,,,
8000.11,-0.00132,-153.83,,,,,,,
8000.14,-0.00135,-154.14,,,,,,,
8000.17,-0.00137,-154.61,,,,,,,
8000.21,-0.0014,-155.19,,,,,,,
8000.23,-0.00143,-155.76,,,,,,,
8000.26,-0.00145,-156.46,,,,,,,
8000.29,-0.00148,-157.18,,,,,,,
8000.31,-0.0015,-157.93,,,,,,,
8000.34,-0.00153,-158.62,,,,,,,
8000.36,-0.00155,-159.33,,,,,,,
8000.39,-0.00158,-160.07,,,,,,,
8000.41,-0.00161,-160.71,,,,,,,
8000.43,-0.00163,-161.38,,,,,,,
8000.45,-0.00166,-161.9,,,,,,,
8000.48,-0.00168,-162.36,,,,,,,
8000.5,-0.00171,-162.88,,,,,,,
8000.53,-0.00173,-163.36,,,,,,,
8000.56,-0.00176,-163.83,,,,,,,
8000.58,-0.00179,-164.16,,,,,,,
8000.6,-0.00181,-164.5,,,,,,,
8000.62,-0.00184,-164.77,,,,,,,
8000.65,-0.00186,-165.1,,,,,,,
8000.67,-0.00189,-165.3,,,,,,,
8000.7,-0.00191,-165.43,,,,,,,
8000.72,-0.00194,-165.52,,,,,,,
8000.75,-0.00197,-165.27,,,,,,,
8000.79,-0.00199,-163.73,,,,,,,
8000.9,-0.00197,-145.12,,,,,,,
8000.93,-0.00194,-139.48,,,,,,,
8000.95,-0.00191,-134.28,,,,,,,
8000.97,-0.00189,-129.57,,,,,,,
8000.99,-0.00186,-125.3,,,,,,,
8001.01,-0.00184,-120.9,,,,,,,
8001.02,-0.00181,-116.92,,,,,,,
8001.04,-0.00178,-112.61,,,,,,,
8001.07,-0.00176,-108.04,,,,,,,
8001.09,-0.00173,-103.93,,,,,,,
8001.11,-0.00171,-100.14,,,,,,,
8001.13,-0.00168,-96.76,,,,,,,
8001.15,-0.00166,-92.81,,,,,,,
8001.18,-0.00163,-88.67,,,,,,,
8001.2,-0.00161,-84.88,,,,,,,
8001.22,-0.00158,-81.42,,,,,,,
8001.25,-0.00155,-78.19,,,,,,,
8001.27,-0.00153,-74.79,,,,,,,
8001.3,-0.0015,-71.29,,,,,,,
8001.33,-0.00148,-67.68,,,,,,,
8001.36,-0.00145,-63.86,,,,,,,
8001.38,-0.00143,-60.45,,,,,,,
8001.41,-0.0014,-57.06,,,,,,,
8001.44,-0.00138,-53.8,,,,,,,
8001.47,-0.00135,-50.26,,,,,,,
8001.5,-0.00133,-46.55,,,,,,,
8001.52,-0.0013,-43.04,,,,,,,
8001.55,-0.00127,-39.46,,,,,,,
8001.58,-0.00125,-36.21,,,,,,,
8001.6,-0.00122,-32.75,,,,,,,
8001.63,-0.0012,-29.66,,,,,,,
8001.65,-0.00117,-26.71,,,,,,,
8001.68,-0.00115,-23.37,,,,,,,
8001.71,-0.00112,-20.15,,,,,,,
8001.74,-0.0011,-16.98,,,,,,,
8001.76,-0.00107,-13.78,,,,,,,
8001.79,-0.00105,-10.76,,,,,,,
8001.82,-0.00102,-7.41,,,,,,,
8001.85,-0.001,-3.84,,,,,,,
8001.88,-0.00097,-0.42,,,,,,,
8001.91,-0.00094,2.74,,,,,,,
8001.94,-0.00092,5.79,,,,,,,
8001.96,-0.00089,8.95,,,,,,,
8001.99,-0.00087,11.9,,,,,,,
8002.01,-0.00084,14.81,,,,,,,
8002.04,-0.00082,17.43,,,,,,,
8002.06,-0.00079,20.28,,,,,,,
8002.09,-0.00077,23.09,,,,,,,
8002.13,-0.00074,26.02,,,,,,,
8002.18,-0.00072,28.84,,,,,,,
8002.23,-0.00069,31.59,,,,,,,
8002.28,-0.00067,34.65,,,,,,,
8002.31,-0.00064,37.38,,,,,,,
8002.34,-0.00062,40.24,,,,,,,
8002.36,-0.00059,43.98,,,,,,,
8002.38,-0.00056,47.21,,,,,,,
8002.4,-0.00054,50.09,,,,,,,
8002.42,-0.00051,52.85,,,,,,,
8002.44,-0.00049,55.52,,,,,,,
8002.46,-0.00046,58.1,,,,,,,
8002.49,-0.00044,60.41,,,,,,,
8002.51,-0.00041,62.54,,,,,,,
8002.54,-0.00039,64.74,,,,,,,
8002.56,-0.00036,66.66,,,,,,,
8002.59,-0.00033,68.56,,,,,,,
8002.63,-0.00031,70.6,,,,,,,
8002.66,-0.00028,72.39,,,,,,,
8002.68,-0.00026,74.09,,,,,,,
11993.09,0.00192,161.97,,,,,,,
11993.11,0.00195,161.96,,,,,,,
11993.14,0.00197,161.51,,,,,,,
11993.18,0.002,159.58,,,,,,,
11993.27,0.00198,144.56,,,,,,,
11993.3,0.00195,138.68,,,,,,,
11993.32,0.00192,133.6,,,,,,,
11993.34,0.0019,128.68,,,,,,,
11993.36,0.00187,123.85,,,,,,,
11993.38,0.00185,119.44,,,,,,,
11993.4,0.00182,115.42,,,,,,,
11993.42,0.0018,111.43,,,,,,,
11993.44,0.00177,107.34,,,,,,,
11993.46,0.00174,103.51,,,,,,,
11993.48,0.00172,99.82,,,,,,,
11993.51,0.00169,95.97,,,,,,,
11993.53,0.00167,92.36,,,,,,,
11993.55,0.00164,88.58,,,,,,,
11993.59,0.00162,83.94,,,,,,,
11993.62,0.00159,79.78,,,,,,,
11993.65,0.00157,75.49,,,,,,,
11993.68,0.00154,71.48,,,,,,,
11993.7,0.00151,68.2,,,,,,,
11993.72,0.00149,65.29,,,,,,,
11993.74,0.00146,62.2,,,,,,,
11993.77,0.00144,59.29,,,,,,,
11993.79,0.00141,56.11,,,,,,,
11993.82,0.00139,52.58,,,,,,,
11993.85,0.00136,48.92,,,,,,,
11993.88,0.00134,45.86,,,,,,,
11993.9,0.00131,42.68,,,,,,,
11993.94,0.00129,38.94,,,,,,,
11993.97,0.00126,34.79,,,,,,,
11994.0,0.00123,31.52,,,,,,,
11994.02,0.00121,28.29,,,,,,,
11994.05,0.00118,25.14,,,,,,,
11994.07,0.00116,22.25,,,,,,,
11994.1,0.00113,19.33,,,,,,,
11994.12,0.00111,16.14,,,,,,,
11994.15,0.00108,13.34,,,,,,,
11994.18,0.00106,10.05,,,,,,,
11994.21,0.00103,6.83,,,,,,,
11994.23,0.00101,3.97,,,,,,,
11994.26,0.00098,1.01,,,,,,,
11994.29,0.00096,-2.13,,,,,,,
11994.32,0.00093,-5.38,,,,,,,
11994.34,0.0009,-8.47,,,,,,,
11994.37,0.00088,-11.54,,,,,,,
11994.4,0.00085,-14.36,,,,,,,
11994.43,0.00083,-16.58,,,,,,,
11994.47,0.0008,-17.67,,,,,,,
11994.55,0.00078,-17.99,,,,,,,
11994.6,0.00075,-19.91,,,,,,,
11994.64,0.00073,-22.04,,,,,,,
11994.69,0.0007,-24.98,,,,,,,
11994.72,0.00068,-27.82,,,,,,,
11994.75,0.00065,-30.61,,,,,,,
11994.78,0.00062,-33.35,,,,,,,
11994.81,0.0006,-36.52,,,,,,,
11994.83,0.00057,-39.56,,,,,,,
11994.86,0.00055,-42.91,,,,,,,
11994.88,0.00052,-46.67,,,,,,,
11994.89,0.0005,-49.68,,,,,,,
11994.91,0.00047,-52.4,,,,,,,
11994.92,0.00044,-55.04,,,,,,,
11994.94,0.00042,-57.83,,,,,,,
11994.96,0.00039,-60.67,,,,,,,
11994.97,0.00037,-63.34,,,,,,,
11994.99,0.00034,-66.13,,,,,,,
11995.0,0.00031,-68.58,,,,,,,
11995.01,0.00029,-70.96,,,,,,,
11995.03,0.00026,-73.5,,,,,,,
11995.04,0.00024,-75.86,,,,,,,
11995.06,0.00021,-78.22,,,,,,,
11995.07,0.00018,-80.48,,,,,,,
11995.09,0.00016,-82.82,,,,,,,
11995.11,0.00013,-84.83,,,,,,,
11995.12,0.00011,-86.77,,,,,,,
11995.14,8e-05,-88.73,,,,,,,
11995.16,6e-05,-90.7,,,,,,,
11995.18,3e-05,-92.26,,,,,,,
11995.2,1e-05,-94.06,,,,,,,
11995.21,-2e-05,-95.36,,,,,,,
11995.23,-5e-05,-96.7,,,,,,,
11995.26,-7e-05,-98.01,,,,,,,
11995.28,-0.0001,-99.21,,,,,,,
11995.3,-0.00012,-100.32,,,,,,,
11995.33,-0.00015,-101.56,,,,,,,
11995.36,-0.00017,-102.7,,,,,,,
11995.39,-0.0002,-103.82,,,,,,,
11995.42,-0.00022,-105.17,,,,,,,
11995.45,-0.00025,-106.53,,,,,,,
11995.48,-0.00027,-107.85,,,,,,,
11995.51,-0.0003,-109.41,,,,,,,
11995.53,-0.00033,-110.93,,,,,,,
11995.56,-0.00035,-112.6,,,,,,,
11995.59,-0.00038,-114.11,,,,,,,
11995.62,-0.0004,-115.75,,,,,,,
11995.64,-0.00043,-117.44,,,,,,,
11995.67,-0.00045,-119.13,,,,,,,
11995.69,-0.00048,-120.61,,,,,,,
11995.71,-0.0005,-122.04,,,,,,,
11995.73,-0.00053,-123.3,,,,,,,
11995.76,-0.00055,-124.74,,,,,,,
11995.79,-0.00058,-126.21,,,,,,,
11995.81,-0.00061,-127.62,,,,,,,
11995.83,-0.00063,-128.75,,,,,,,
11995.85,-0.00066,-129.95,,,,,,,
11995.88,-0.00068,-131.15,,,,,,,
11995.91,-0.00071,-132.2,,,,,,,
11995.93,-0.00073,-133.42,,,,,,,
11995.96,-0.00076,-134.54,,,,,,,
11995.99,-0.00078,-135.7,,,,,,,
11996.02,-0.00081,-136.99,,,,,,,
11996.04,-0.00084,-138.25,,,,,,,
11996.07,-0.00086,-139.49,,,,,,,
11996.09,-0.00089,-140.6,,,,,,,
11996.12,-0.00091,-141.66,,,,,,,
11996.14,-0.00094,-142.6,,,,,,,
11996.16,-0.00096,-143.6,,,,,,,
11996.18,-0.00099,-144.58,,,,,,,
11996.21,-0.00101,-145.63,,,,,,,
11996.23,-0.00104,-146.46,,,,,,,
11996.26,-0.00107,-147.23,,,,,,,
11996.29,-0.00109,-148.03,,,,,,,
11996.31,-0.00112,-148.76,,,,,,,
11996.34,-0.00114,-149.53,,,,,,,
11996.36,-0.00117,-150.38,,,,,,,
11996.39,-0.00119,-151.2,,,,,,,
11996.42,-0.00122,-152.08,,,,,,,
11996.44,-0.00124,-152.91,,,,,,,
11996.47,-0.00127,-153.74,,,,,,,
11996.49,-0.00129,-154.55,,,,,,,
11996.52,-0.00132,-155.33,,,,,,,
11996.55,-0.00135,-156.15,,,,,,,
11996.57,-0.00137,-156.98,,,,,,,
11996.6,-0.0014,-157.76,,,,,,,
11996.62,-0.00142,-158.58,,,,,,,
11996.65,-0.00145,-159.36,,,,,,,
11996.68,-0.00147,-160.18,,,,,,,
11996.7,-0.0015,-160.96,,,,,,,
11996.72,-0.00153,-161.7,,,,,,,
11996.75,-0.00155,-162.43,,,,,,,
11996.77,-0.00158,-162.97,,,,,,,
11996.79,-0.0016,-163.46,,,,,,,
11996.81,-0.00163,-163.94,,,,,,,
11996.84,-0.00165,-164.36,,,,,,,
11996.86,-0.00168,-164.65,,,,,,,
11996.89,-0.0017,-164.91,,,,,,,
11996.91,-0.00173,-165.17,,,,,,,
11996.94,-0.00175,-165.49,,,,,,,
11996.97,-0.00178,-165.85,,,,,,,
11997.0,-0.00181,-166.26,,,,,,,
11997.03,-0.00183,-166.63,,,,,,,
11997.06,-0.00186,-167.07,,,,,,,
11997.08,-0.00188,-167.48,,,,,,,
11997.1,-0.00191,-167.88,,,,,,,
11997.13,-0.00193,-168.19,,,,,,,
11997.15,-0.00196,-168.04,,,,,,,
11997.19,-0.00198,-166.74,,,,,,,
11997.31,-0.00196,-145.87,,,,,,,
11997.33,-0.00193,-140.68,,,,,,,
11997.35,-0.00191,-135.68,,,,,,,
11997.37,-0.00188,-130.97,,,,,,,
11997.39,-0.00186,-126.26,,,,,,,
11997.41,-0.00183,-121.81,,,,,,,
11997.43,-0.0018,-117.31,,,,,,,
11997.45,-0.00178,-112.92,,,,,,,
11997.47,-0.00175,-109.01,,,,,,,
11997.49,-0.00173,-105.29,,,,,,,
11997.51,-0.0017,-101.31,,,,,,,
11997.53,-0.00168,-97.52,,,,,,,
11997.55,-0.00165,-93.69,,,,,,,
11997.58,-0.00163,-89.57,,,,,,,
11997.6,-0.0016,-85.53,,,,,,,
11997.63,-0.00157,-81.84,,,,,,,
11997.65,-0.00155,-77.94,,,,,,,
11997.68,-0.00152,-74.06,,,,,,,
11997.71,-0.0015,-70.61,,,,,,,
11997.73,-0.00147,-67.14,,,,,,,
11997.76,-0.00145,-63.26,,,,,,,
11997.79,-0.00142,-59.57,,,,,,,
11997.81,-0.0014,-56.04,,,,,,,
11997.84,-0.00137,-52.47,,,,,,,
11997.87,-0.00134,-48.95,,,,,,,
11997.89,-0.00132,-45.8,,,,,,,
11997.92,-0.00129,-42.31,,,,,,,
11997.95,-0.00127,-38.82,,,,,,,
11997.98,-0.00124,-35.45,,,,,,,
11998.0,-0.00122,-32.22,,,,,,,
11998.03,-0.00119,-29.09,,,,,,,
11998.06,-0.00117,-25.73,,,,,,,
11998.09,-0.00114,-22.03,,,,,,,
11998.12,-0.00112,-18.62,,,,,,,
11998.14,-0.00109,-15.66,,,,,,,
11998.17,-0.00107,-12.43,,,,,,,
11998.19,-0.00104,-9.12,,,,,,,
11998.22,-0.00102,-5.89,,,,,,,
11998.25,-0.00099,-2.81,,,,,,,
11998.28,-0.00097,0.46,,,,,,,
11998.31,-0.00094,3.82,,,,,,,
11998.33,-0.00091,6.79,,,,,,,
11998.36,-0.00089,10.05,,,,,,,
11998.39,-0.00086,13.23,,,,,,,
11998.41,-0.00084,15.88,,,,,,,
11998.44,-0.00081,19.07,,,,,,,
11998.46,-0.00079,21.87,,,,,,,
11998.49,-0.00076,24.33,,,,,,,
11998.52,-0.00074,26.62,,,,,,,
11998.57,-0.00071,28.76,,,,,,,
11998.61,-0.00069,31.06,,,,,,,
11998.65,-0.00066,33.56,,,,,,,
11998.69,-0.00064,36.06,,,,,,,
11998.72,-0.00061,38.48,,,,,,,
11998.74,-0.00059,41.61,,,,,,,
11998.76,-0.00056,44.38,,,,,,,
11998.78,-0.00053,47.02,,,,,,,
11998.8,-0.00051,49.27,,,,,,,
11998.81,-0.00048,51.51,,,,,,,
11998.83,-0.00046,53.41,,,,,,,
11998.85,-0.00043,55.29,,,,,,,
11998.88,-0.00041,57.24,,,,,,,
11998.91,-0.00038,59.27,,,,,,,
11998.94,-0.00036,61.06,,,,,,,
11998.98,-0.00033,62.84,,,,,,,
11999.01,-0.00031,64.7,,,,,,,
11999.04,-0.00028,66.39,,,,,,,
11999.07,-0.00025,68.01,,,,,,,
11999.1,-0.00023,69.62,,,,,,,
11999.13,-0.0002,71.44,,,,,,,
11999.16,-0.00018,73.36,,,,,,,
11999.19,-0.00015,75.31,,,,,,,
11999.21,-0.00013,77.38,,,,,,,
11999.24,-0.0001,79.48,,,,,,,
11999.27,-8e-05,81.6,,,,,,,
11999.29,-5e-05,83.76,,,,,,,
11999.31,-3e-05,85.84,,,,,,,
11999.32,0.0,88.27,,,,,,,
11999.34,3e-05,90.76,,,,,,,
11999.36,5e-05,93.32,,,,,,,
11999.38,8e-05,96.13,,,,,,,
11999.4,0.0001,98.77,,,,,,,
11999.42,0.00013,101.28,,,,,,,
11999.44,0.00015,103.74,,,,,,,
11999.46,0.00018,106.02,,,,,,,
11999.47,0.0002,108.14,,,,,,,
11999.49,0.00023,110.24,,,,,,,
11999.51,0.00026,112.08,,,,,,,
11999.53,0.00028,113.98,,,,,,,
11999.55,0.00031,115.71,,,,,,,
11999.56,0.00033,117.43,,,,,,,
11999.58,0.00036,118.95,,,,,,,
11999.6,0.00038,120.45,,,,,,,
11999.62,0.00041,121.77,,,,,,,
11999.64,0.00044,122.94,,,,,,,
11999.66,0.00046,123.95,,,,,,,
11999.69,0.00049,124.91,,,,,,,
11999.71,0.00051,125.86,,,,,,,
11999.74,0.00054,126.9,,,,,,,
11999.77,0.00056,127.88,,,,,,,
11999.79,0.00059,128.74,,,,,,,
11999.82,0.00061,129.79,,,,,,,
11999.84,0.00063,130.51,,,,,,,
11999.85,0.00064,130.87,,,,,,,
11999.88,0.00067,131.99,,,,,,,
11999.91,0.00069,133.06,,,,,,,
11999.93,0.00072,134.03,,,,,,,
11999.95,0.00074,135.13,,,,,,,
11999.97,0.00077,136.14,,,,,,,
11999.99,0.00079,137.06,,,,,,,
12000.02,0.00082,138.07,,,,,,,
12000.04,0.00084,139.02,,,,,,,
12000.07,0.00087,139.96,,,,,,,
12000.1,0.00089,141.04,,,,,,,
12000.13,0.00092,142.13,,,,,,,
12000.16,0.00095,143.21,,,,,,,
12000.18,0.00097,144.26,,,,,,,
12000.21,0.001,145.33,,,,,,,
12000.23,0.00102,146.36,,,,,,,
12000.26,0.00105,147.39,,,,,,,
12000.28,0.00107,148.39,,,,,,,
12000.31,0.0011,149.39,,,,,,,
12000.33,0.00112,150.38,,,,,,,
12000.36,0.00115,151.32,,,,,,,
12000.38,0.00118,152.21,,,,,,,
12000.41,0.0012,153.04,,,,,,,
12000.43,0.00123,153.92,,,,,,,
12000.45,0.00125,154.71,,,,,,,
12000.48,0.00128,155.49,,,,,,,
12000.5,0.0013,156.07,,,,,,,
12000.52,0.00133,156.73,,,,,,,
12000.55,0.00135,157.36,,,,,,,
12000.57,0.00138,157.84,,,,,,,
12000.6,0.0014,158.31,,,,,,,
12000.62,0.00143,158.75,,,,,,,
12000.64,0.00146,159.19,,,,,,,
12000.67,0.00148,159.53,,,,,,,
12000.69,0.00151,159.85,,,,,,,
12000.72,0.00153,160.09,,,,,,,
12000.74,0.00156,160.31,,,,,,,
12000.77,0.00158,160.55,,,,,,,
12000.8,0.00161,160.86,,,,,,,
12000.83,0.00163,161.21,,,,,,,
12000.85,0.00166,161.58,,,,,,,
12000.87,0.00168,161.9,,,,,,,
12000.9,0.00171,162.24,,,,,,,
12000.92,0.00174,162.63,,,,,,,
12000.95,0.00176,162.9,,,,,,,
12000.97,0.00179,163.13,,,,,,,
12000.99,0.00181,163.34,,,,,,,
12001.02,0.00184,163.53,,,,,,,
12001.04,0.00186,163.67,,,,,,,
12001.06,0.00189,163.74,,,,,,,
12001.09,0.00191,163.74,,,,,,,
16003.51,-0.00025,76.57,,,,,,,
16003.54,-0.00022,79.0,,,,,,,
16003.57,-0.0002,81.39,,,,,,,
16003.6,-0.00017,83.52,,,,,,,
16003.62,-0.00015,85.61,,,,,,,
16003.64,-0.00012,88.11,,,,,,,
16003.66,-9e-05,90.64,,,,,,,
16003.68,-7e-05,93.19,,,,,,,
16003.69,-4e-05,95.57,,,,,,,
16003.71,-1e-05,97.88,,,,,,,
16003.72,1e-05,100.21,,,,,,,
16003.74,4e-05,102.61,,,,,,,
16003.75,6e-05,104.78,,,,,,,
16003.77,9e-05,106.97,,,,,,,
16003.79,0.00011,109.17,,,,,,,
16003.8,0.00014,111.18,,,,,,,
16003.82,0.00017,113.28,,,,,,,
16003.84,0.00019,115.03,,,,,,,
16003.86,0.00022,116.74,,,,,,,
16003.88,0.00024,118.37,,,,,,,
16003.9,0.00027,119.81,,,,,,,
16003.92,0.00029,121.28,,,,,,,
16003.94,0.00032,122.59,,,,,,,
16003.96,0.00035,123.83,,,,,,,
16003.98,0.00037,125.03,,,,,,,
16004.0,0.0004,126.19,,,,,,,
16004.03,0.00042,127.12,,,,,,,
16004.05,0.00045,127.94,,,,,,,
16004.07,0.00047,128.59,,,,,,,
16004.09,0.0005,129.42,,,,,,,
16004.12,0.00052,130.13,,,,,,,
16004.15,0.00055,130.87,,,,,,,
16004.17,0.00057,131.64,,,,,,,
16004.2,0.0006,132.33,,,,,,,
16004.22,0.00063,132.95,,,,,,,
16004.24,0.00065,133.61,,,,,,,
16004.27,0.00068,134.35,,,,,,,
16004.3,0.0007,135.2,,,,,,,
16004.33,0.00073,136.08,,,,,,,
16004.36,0.00075,136.9,,,,,,,
16004.39,0.00078,137.87,,,,,,,
16004.41,0.0008,138.82,,,,,,,
16004.44,0.00083,139.87,,,,,,,
16004.46,0.00085,140.87,,,,,,,
16004.49,0.00088,141.95,,,,,,,
16004.51,0.00091,142.98,,,,,,,
16004.54,0.00093,144.03,,,,,,,
16004.56,0.00096,144.93,,,,,,,
16004.58,0.00098,145.68,,,,,,,
16004.6,0.00101,146.4,,,,,,,
16004.63,0.00103,147.13,,,,,,,
16004.65,0.00106,147.91,,,,,,,
16004.68,0.00108,148.46,,,,,,,
16004.7,0.00111,149.06,,,,,,,
16004.73,0.00113,149.74,,,,,,,
16004.75,0.00116,150.32,,,,,,,
16004.78,0.00119,150.9,,,,,,,
16004.81,0.00121,151.42,,,,,,,
16004.83,0.00124,151.95,,,,,,,
16004.86,0.00126,152.59,,,,,,,
16004.88,0.00129,153.23,,,,,,,
16004.91,0.00131,153.88,,,,,,,
16004.93,0.00134,154.37,,,,,,,
16004.95,0.00136,154.79,,,,,,,
16004.98,0.00139,155.19,,,,,,,
16005.0,0.00142,155.6,,,,,,,
16005.03,0.00144,155.91,,,,,,,
16005.05,0.00147,156.25,,,,,,,
16005.08,0.00149,156.47,,,,,,,
16005.11,0.00152,156.74,,,,,,,
16005.13,0.00154,156.94,,,,,,,
16005.16,0.00157,157.17,,,,,,,
16005.18,0.00159,157.42,,,,,,,
16005.2,0.00162,157.63,,,,,,,
16005.23,0.00165,157.9,,,,,,,
16005.26,0.00167,158.21,,,,,,,
16005.28,0.0017,158.47,,,,,,,
16005.31,0.00172,158.74,,,,,,,
16005.33,0.00175,158.96,,,,,,,
16005.35,0.00177,159.07,,,,,,,
16005.38,0.0018,159.19,,,,,,,
16005.41,0.00183,159.27,,,,,,,
16005.43,0.00185,159.37,,,,,,,
16005.46,0.00188,159.5,,,,,,,
16005.48,0.0019,159.68,,,,,,,
16005.51,0.00193,159.87,,,,,,,
16005.54,0.00195,159.9,,,,,,,
16005.57,0.00198,159.2,,,,,,,
16005.62,0.002,155.42,,,,,,,
16005.68,0.00198,144.4,,,,,,,
16005.71,0.00195,138.45,,,,,,,
16005.73,0.00193,133.34,,,,,,,
16005.75,0.0019,129.03,,,,,,,
16005.77,0.00188,124.83,,,,,,,
16005.79,0.00185,120.32,,,,,,,
16005.81,0.00182,116.06,,,,,,,
16005.83,0.0018,112.24,,,,,,,
16005.85,0.00177,108.42,,,,,,,
16005.86,0.00175,104.82,,,,,,,
16005.88,0.00172,101.37,,,,,,,
16005.91,0.0017,97.86,,,,,,,
16005.93,0.00167,93.86,,,,,,,
16005.96,0.00165,89.91,,,,,,,
16005.98,0.00162,86.59,,,,,,,
16006.01,0.00159,83.08,,,,,,,
16006.04,0.00157,79.41,,,,,,,
16006.07,0.00154,75.33,,,,,,,
16006.1,0.00152,71.3,,,,,,,
16006.13,0.00149,67.34,,,,,,,
16006.16,0.00147,63.82,,,,,,,
16006.18,0.00144,60.46,,,,,,,
16006.21,0.00142,57.44,,,,,,,
16006.23,0.00139,54.4,,,,,,,
16006.26,0.00137,51.05,,,,,,,
16006.29,0.00134,47.26,,,,,,,
16006.32,0.00131,43.15,,,,,,,
16006.35,0.00129,39.43,,,,,,,
16006.38,0.00126,36.12,,,,,,,
16006.4,0.00124,32.77,,,,,,,
16006.43,0.00121,29.65,,,,,,,
16006.45,0.00119,26.65,,,,,,,
16006.48,0.00116,23.87,,,,,,,
16006.5,0.00114,21.21,,,,,,,
16006.52,0.00111,18.32,,,,,,,
16006.55,0.00109,15.42,,,,,,,
16006.57,0.00106,12.75,,,,,,,
16006.6,0.00104,10.24,,,,,,,
16006.62,0.00101,7.52,,,,,,,
16006.65,0.00099,4.85,,,,,,,
16006.68,0.00096,2.09,,,,,,,
16006.7,0.00094,-0.39,,,,,,,
16006.73,0.00091,-3.22,,,,,,,
16006.76,0.00089,-6.36,,,,,,,
16006.79,0.00086,-9.19,,,,,,,
16006.82,0.00083,-12.15,,,,,,,
16006.85,0.00081,-14.55,,,,,,,
16006.9,0.00078,-16.4,,,,,,,
16007.01,0.00076,-18.73,,,,,,,
16007.06,0.00073,-21.5,,,,,,,
16007.09,0.00071,-24.23,,,,,,,
16007.12,0.00068,-26.67,,,,,,,
16007.15,0.00066,-29.25,,,,,,,
16007.19,0.00063,-31.89,,,,,,,
16007.21,0.00061,-34.27,,,,,,,
16007.24,0.00058,-37.04,,,,,,,
16007.26,0.00055,-39.74,,,,,,,
16007.28,0.00053,-42.38,,,,,,,
16007.3,0.0005,-45.44,,,,,,,
16007.32,0.00048,-48.69,,,,,,,
16007.33,0.00045,-51.77,,,,,,,
16007.35,0.00043,-54.6,,,,,,,
16007.37,0.0004,-57.18,,,,,,,
16007.38,0.00038,-59.74,,,,,,,
16007.4,0.00035,-62.58,,,,,,,
16007.41,0.00032,-65.49,,,,,,,
16007.43,0.0003,-68.18,,,,,,,
16007.45,0.00027,-70.79,,,,,,,
16007.46,0.00025,-73.26,,,,,,,
16007.48,0.00022,-75.61,,,,,,,
16007.49,0.00019,-77.82,,,,,,,
16007.5,0.00017,-79.86,,,,,,,
16007.52,0.00014,-81.94,,,,,,,
16007.53,0.00012,-83.95,,,,,,,
16007.55,9e-05,-85.85,,,,,,,
16007.56,7e-05,-87.73,,,,,,,
16007.58,4e-05,-89.51,,,,,,,
16007.6,2e-05,-91.19,,,,,,,
16007.62,-1e-05,-92.87,,,,,,,
16007.64,-4e-05,-94.57,,,,,,,
16007.67,-6e-05,-96.06,,,,,,,
16007.69,-9e-05,-97.42,,,,,,,
16007.71,-0.00011,-98.75,,,,,,,
16007.74,-0.00014,-99.94,,,,,,,
16007.76,-0.00016,-101.15,,,,,,,
16007.79,-0.00019,-102.41,,,,,,,
16007.82,-0.00021,-103.68,,,,,,,
16007.84,-0.00024,-105.01,,,,,,,
16007.87,-0.00026,-106.28,,,,,,,
16007.9,-0.00029,-107.61,,,,,,,
16007.93,-0.00031,-108.98,,,,,,,
16007.95,-0.00034,-110.44,,,,,,,
16007.98,-0.00037,-111.84,,,,,,,
16008.01,-0.00039,-113.33,,,,,,,
16008.03,-0.00042,-114.84,,,,,,,
16008.06,-0.00044,-116.28,,,,,,,
16008.08,-0.00047,-117.69,,,,,,,
16008.11,-0.00049,-119.16,,,,,,,
16008.13,-0.00052,-120.56,,,,,,,
16008.16,-0.00054,-121.71,,,,,,,
16008.18,-0.00057,-122.79,,,,,,,
16008.2,-0.0006,-124.14,,,,,,,
16008.23,-0.00062,-125.31,,,,,,,
16008.25,-0.00065,-126.31,,,,,,,
16008.27,-0.00067,-127.36,,,,,,,
16008.3,-0.0007,-128.56,,,,,,,
16008.33,-0.00072,-129.66,,,,,,,
16008.36,-0.00075,-130.59,,,,,,,
16008.38,-0.00077,-131.49,,,,,,,
16008.4,-0.0008,-132.34,,,,,,,
16008.43,-0.00083,-133.33,,,,,,,
16008.45,-0.00085,-134.28,,,,,,,
16008.48,-0.00088,-135.21,,,,,,,
16008.51,-0.0009,-136.09,,,,,,,
16008.54,-0.00093,-137.16,,,,,,,
16008.57,-0.00095,-138.29,,,,,,,
16008.6,-0.00098,-139.54,,,,,,,
16008.63,-0.001,-140.74,,,,,,,
16008.65,-0.00103,-141.88,,,,,,,
16008.68,-0.00106,-143.13,,,,,,,
16008.7,-0.00108,-144.28,,,,,,,
16008.72,-0.00111,-145.33,,,,,,,
16008.75,-0.00113,-146.58,,,,,,,
16008.78,-0.00116,-147.76,,,,,,,
16008.8,-0.00118,-148.75,,,,,,,
16008.82,-0.00121,-149.7,,,,,,,
16008.85,-0.00123,-150.67,,,,,,,
16008.87,-0.00126,-151.55,,,,,,,
16008.89,-0.00129,-152.36,,,,,,,
16008.92,-0.00131,-153.16,,,,,,,
16008.94,-0.00134,-153.92,,,,,,,
16008.96,-0.00136,-154.51,,,,,,,
16008.98,-0.00139,-155.05,,,,,,,
16009.01,-0.00141,-155.69,,,,,,,
16009.04,-0.00144,-156.26,,,,,,,
16009.06,-0.00146,-156.78,,,,,,,
16009.09,-0.00149,-157.31,,,,,,,
16009.12,-0.00152,-157.82,,,,,,,
16009.14,-0.00154,-158.34,,,,,,,
16009.17,-0.00157,-158.85,,,,,,,
16009.2,-0.00159,-159.48,,,,,,,
16009.22,-0.00162,-160.0,,,,,,,
16009.24,-0.00164,-160.51,,,,,,,
16009.27,-0.00167,-161.03,,,,,,,
16009.29,-0.00169,-161.49,,,,,,,
16009.31,-0.00172,-161.94,,,,,,,
16009.33,-0.00174,-162.23,,,,,,,
16009.36,-0.00177,-162.53,,,,,,,
16009.39,-0.0018,-162.84,,,,,,,
16009.41,-0.00182,-163.08,,,,,,,
16009.44,-0.00185,-163.29,,,,,,,
16009.46,-0.00187,-163.55,,,,,,,
16009.49,-0.0019,-163.76,,,,,,,
16009.51,-0.00192,-163.94,,,,,,,
16009.55,-0.00195,-163.97,,,,,,,
16009.58,-0.00197,-162.87,,,,,,,
16009.71,-0.00195,-145.63,,,,,,,
16009.73,-0.00192,-140.18,,,,,,,
16009.75,-0.0019,-135.25,,,,,,,
16009.77,-0.00187,-130.62,,,,,,,
16009.8,-0.00185,-125.54,,,,,,,
16009.82,-0.00182,-121.07,,,,,,,
16009.84,-0.00179,-116.5,,,,,,,
16009.84,-0.00179,-115.46,,,,,,,
16009.86,-0.00177,-112.11,,,,,,,
16009.88,-0.00174,-107.8,,,,,,,
16009.91,-0.00172,-103.1,,,,,,,
16009.93,-0.00169,-98.69,,,,,,,
16009.96,-0.00167,-94.37,,,,,,,
16009.98,-0.00164,-90.67,,,,,,,
16010.0,-0.00161,-87.17,,,,,,,
16010.02,-0.00159,-83.89,,,,,,,
16010.04,-0.00156,-80.64,,,,,,,
16010.07,-0.00154,-77.38,,,,,,,
16010.09,-0.00151,-73.8,,,,,,,
16010.12,-0.00149,-70.2,,,,,,,
16010.15,-0.00146,-66.27,,,,,,,
16010.18,-0.00144,-62.87,,,,,,,
16010.21,-0.00141,-59.15,,,,,,,
16010.24,-0.00138,-55.27,,,,,,,
16010.27,-0.00136,-51.78,,,,,,,
16010.29,-0.00133,-48.33,,,,,,,
16010.32,-0.00131,-44.71,,,,,,,
16010.35,-0.00128,-41.48,,,,,,,
16010.37,-0.00126,-38.42,,,,,,,
16010.4,-0.00123,-35.31,,,,,,,
16010.42,-0.00121,-31.87,,,,,,,
16010.45,-0.00118,-28.57,,,,,,,
16010.48,-0.00115,-25.33,,,,,,,
16010.51,-0.00113,-22.03,,,,,,,
16010.53,-0.0011,-18.84,,,,,,,
16010.56,-0.00108,-15.36,,,,,,,
16010.59,-0.00105,-11.94,,,,,,,
16010.62,-0.00103,-8.56,,,,,,,
16010.65,-0.001,-5.52,,,,,,,
16010.67,-0.00098,-2.63,,,,,,,
16010.69,-0.00095,0.03,,,,,,,
16010.72,-0.00093,2.78,,,,,,,
16010.75,-0.0009,6.0,,,,,,,
16010.78,-0.00087,9.47,,,,,,,
16010.81,-0.00085,12.49,,,,,,,
16010.83,-0.00082,15.39,,,,,,,
16010.86,-0.0008,18.53,,,,,,,
16010.89,-0.00077,21.24,,,,,,,
16010.91,-0.00075,23.73,,,,,,,
16010.95,-0.00072,25.96,,,,,,,
16010.99,-0.0007,28.19,,,,,,,
16011.03,-0.00067,30.34,,,,,,,
16011.08,-0.00065,32.63,,,,,,,
16011.12,-0.00062,34.91,,,,,,,
16011.16,-0.0006,37.84,,,,,,,
16011.19,-0.00057,41.31,,,,,,,
16011.2,-0.00055,44.34,,,,,,,
16011.22,-0.00052,47.22,,,,,,,
16011.24,-0.00049,49.98,,,,,,,
16011.26,-0.00047,52.55,,,,,,,
16011.28,-0.00044,55.07,,,,,,,
16011.3,-0.00042,57.25,,,,,,,
16011.32,-0.00039,59.45,,,,,,,
16011.35,-0.00037,61.42,,,,,,,
16011.37,-0.00034,63.23,,,,,,,
16011.41,-0.00032,65.31,,,,,,,
16011.44,-0.00029,67.2,,,,,,,
16011.47,-0.00027,69.06,,,,,,,
16011.5,-0.00024,70.87,,,,,,,
21603.67,0.00193,150.38,,,,,,,
21603.69,0.00195,150.52,,,,,,,
21603.72,0.00198,150.03,,,,,,,
21603.85,0.00195,132.41,,,,,,,
21603.88,0.00193,127.46,,,,,,,
21603.9,0.0019,122.72,,,,,,,
21603.92,0.00188,118.33,,,,,,,
21603.94,0.00185,114.22,,,,,,,
21603.96,0.00183,110.5,,,,,,,
21603.98,0.0018,106.59,,,,,,,
21604.0,0.00177,102.93,,,,,,,
21604.02,0.00175,99.45,,,,,,,
21604.04,0.00172,95.76,,,,,,,
21604.06,0.0017,91.87,,,,,,,
21604.09,0.00167,88.39,,,,,,,
21604.11,0.00165,84.94,,,,,,,
21604.14,0.00162,81.38,,,,,,,
21604.16,0.0016,78.37,,,,,,,
21604.18,0.00157,75.32,,,,,,,
21604.21,0.00155,72.09,,,,,,,
21604.23,0.00152,69.17,,,,,,,
21604.26,0.00149,66.06,,,,,,,
21604.29,0.00147,62.4,,,,,,,
21604.32,0.00144,59.12,,,,,,,
21604.35,0.00142,55.76,,,,,,,
21604.38,0.00139,52.8,,,,,,,
21604.4,0.00137,49.93,,,,,,,
21604.43,0.00134,47.33,,,,,,,
21604.45,0.00132,44.84,,,,,,,
21604.47,0.00129,42.06,,,,,,,
21604.5,0.00127,39.0,,,,,,,
21604.53,0.00124,36.31,,,,,,,
21604.55,0.00121,33.72,,,,,,,
21604.58,0.00119,30.61,,,,,,,
21604.61,0.00116,27.64,,,,,,,
21604.64,0.00114,24.46,,,,,,,
21604.67,0.00111,21.37,,,,,,,
21604.7,0.00109,18.31,,,,,,,
21604.73,0.00106,15.21,,,,,,,
21604.75,0.00104,12.67,,,,,,,
21604.78,0.00101,10.21,,,,,,,
21604.81,0.00099,7.47,,,,,,,
21604.83,0.00096,4.51,,,,,,,
21604.86,0.00093,1.65,,,,,,,
21604.89,0.00091,-1.27,,,,,,,
21604.92,0.00088,-4.37,,,,,,,
21604.95,0.00086,-7.35,,,,,,,
21604.98,0.00083,-10.43,,,,,,,
21605.01,0.00081,-13.3,,,,,,,
21605.04,0.00078,-15.61,,,,,,,
21605.11,0.00076,-16.81,,,,,,,
21605.2,0.00073,-19.63,,,,,,,
21605.24,0.00071,-22.5,,,,,,,
21605.28,0.00068,-25.13,,,,,,,
21605.31,0.00066,-27.88,,,,,,,
21605.34,0.00063,-30.6,,,,,,,
21605.37,0.0006,-33.22,,,,,,,
21605.4,0.00058,-36.24,,,,,,,
21605.42,0.00055,-39.22,,,,,,,
21605.44,0.00053,-42.07,,,,,,,
21605.47,0.0005,-45.19,,,,,,,
21605.48,0.00048,-48.66,,,,,,,
21605.5,0.00045,-51.46,,,,,,,
21605.51,0.00042,-54.22,,,,,,,
21605.53,0.0004,-56.96,,,,,,,
21605.55,0.00037,-59.59,,,,,,,
21605.56,0.00035,-62.28,,,,,,,
21605.58,0.00032,-64.91,,,,,,,
21605.59,0.00029,-67.44,,,,,,,
21605.61,0.00027,-69.9,,,,,,,
21605.62,0.00024,-72.41,,,,,,,
21605.64,0.00022,-74.78,,,,,,,
21605.65,0.00019,-77.07,,,,,,,
21605.66,0.00017,-79.39,,,,,,,
21605.68,0.00014,-81.55,,,,,,,
21605.7,0.00012,-83.67,,,,,,,
21605.72,9e-05,-85.84,,,,,,,
21605.73,6e-05,-87.82,,,,,,,
21605.75,4e-05,-89.68,,,,,,,
21605.77,1e-05,-91.38,,,,,,,
21605.79,-1e-05,-93.04,,,,,,,
21605.81,-4e-05,-94.64,,,,,,,
21605.82,-7e-05,-96.06,,,,,,,
21605.84,-9e-05,-97.43,,,,,,,
21605.87,-0.00012,-98.69,,,,,,,
21605.89,-0.00014,-99.84,,,,,,,
21605.92,-0.00017,-101.03,,,,,,,
21605.95,-0.00019,-102.16,,,,,,,
21605.97,-0.00022,-103.43,,,,,,,
21606.0,-0.00025,-104.62,,,,,,,
21606.03,-0.00027,-105.91,,,,,,,
21606.06,-0.0003,-107.23,,,,,,,
21606.09,-0.00032,-108.55,,,,,,,
21606.11,-0.00035,-109.8,,,,,,,
21606.14,-0.00037,-111.01,,,,,,,
21606.16,-0.0004,-112.27,,,,,,,
21606.19,-0.00043,-113.43,,,,,,,
21606.21,-0.00045,-114.64,,,,,,,
21606.24,-0.00048,-115.89,,,,,,,
21606.26,-0.0005,-117.07,,,,,,,
21606.29,-0.00053,-118.33,,,,,,,
21606.31,-0.00055,-119.54,,,,,,,
21606.34,-0.00058,-120.74,,,,,,,
21606.36,-0.0006,-121.86,,,,,,,
21606.39,-0.00063,-122.9,,,,,,,
21606.41,-0.00065,-124.14,,,,,,,
21606.44,-0.00068,-125.28,,,,,,,
21606.47,-0.0007,-126.38,,,,,,,
21606.49,-0.00073,-127.53,,,,,,,
21606.52,-0.00076,-128.68,,,,,,,
21606.55,-0.00078,-129.7,,,,,,,
21606.57,-0.00081,-130.8,,,,,,,
21606.59,-0.00083,-131.85,,,,,,,
21606.62,-0.00086,-132.88,,,,,,,
21606.65,-0.00088,-133.9,,,,,,,
21606.67,-0.00091,-134.89,,,,,,,
21606.7,-0.00093,-135.92,,,,,,,
21606.72,-0.00096,-136.94,,,,,,,
21606.75,-0.00098,-137.86,,,,,,,
21606.77,-0.00101,-138.91,,,,,,,
21606.8,-0.00104,-139.9,,,,,,,
21606.82,-0.00106,-140.84,,,,,,,
21606.85,-0.00109,-141.82,,,,,,,
21606.88,-0.00111,-142.78,,,,,,,
21606.9,-0.00114,-143.76,,,,,,,
21606.93,-0.00116,-144.61,,,,,,,
21606.95,-0.00119,-145.4,,,,,,,
21606.97,-0.00121,-146.15,,,,,,,
21606.99,-0.00124,-146.84,,,,,,,
21607.02,-0.00127,-147.51,,,,,,,
21607.04,-0.00129,-148.16,,,,,,,
21607.06,-0.00132,-148.64,,,,,,,
21607.08,-0.00134,-149.12,,,,,,,
21607.11,-0.00137,-149.55,,,,,,,
21607.13,-0.00139,-149.89,,,,,,,
21607.16,-0.00142,-150.18,,,,,,,
21607.18,-0.00144,-150.4,,,,,,,
21607.21,-0.00147,-150.64,,,,,,,
21607.23,-0.0015,-150.84,,,,,,,
21607.26,-0.00152,-150.98,,,,,,,
21607.29,-0.00155,-151.22,,,,,,,
21607.32,-0.00157,-151.5,,,,,,,
21607.34,-0.0016,-151.88,,,,,,,
21607.37,-0.00162,-152.43,,,,,,,
21607.4,-0.00165,-153.0,,,,,,,
21607.43,-0.00167,-153.56,,,,,,,
21607.46,-0.0017,-154.39,,,,,,,
21607.49,-0.00172,-155.28,,,,,,,
21607.52,-0.00175,-156.2,,,,,,,
21607.55,-0.00177,-157.25,,,,,,,
21607.57,-0.0018,-158.36,,,,,,,
21607.6,-0.00183,-159.4,,,,,,,
21607.63,-0.00185,-160.49,,,,,,,
21607.65,-0.00188,-161.63,,,,,,,
21607.68,-0.0019,-162.62,,,,,,,
21607.7,-0.00193,-163.4,,,,,,,
21607.73,-0.00195,-163.33,,,,,,,
21607.88,-0.00193,-144.53,,,,,,,
21607.9,-0.0019,-139.28,,,,,,,
21607.92,-0.00188,-134.46,,,,,,,
21607.95,-0.00185,-129.6,,,,,,,
21607.97,-0.00183,-124.8,,,,,,,
21607.99,-0.0018,-120.16,,,,,,,
21608.01,-0.00178,-115.78,,,,,,,
21608.03,-0.00175,-111.47,,,,,,,
21608.05,-0.00173,-107.47,,,,,,,
21608.07,-0.0017,-103.38,,,,,,,
21608.09,-0.00168,-99.73,,,,,,,
21608.12,-0.00165,-95.79,,,,,,,
21608.14,-0.00162,-91.95,,,,,,,
21608.16,-0.0016,-88.23,,,,,,,
21608.19,-0.00157,-84.56,,,,,,,
21608.22,-0.00155,-80.57,,,,,,,
21608.24,-0.00152,-76.81,,,,,,,
21608.27,-0.0015,-73.37,,,,,,,
21608.29,-0.00147,-69.86,,,,,,,
21608.32,-0.00145,-66.6,,,,,,,
21608.34,-0.00142,-63.47,,,,,,,
21608.37,-0.00139,-59.87,,,,,,,
21608.4,-0.00137,-56.13,,,,,,,
21608.43,-0.00134,-52.42,,,,,,,
21608.46,-0.00132,-48.86,,,,,,,
21608.49,-0.00129,-45.26,,,,,,,
21608.52,-0.00127,-42.01,,,,,,,
21608.54,-0.00124,-38.63,,,,,,,
21608.57,-0.00122,-35.48,,,,,,,
21608.59,-0.00119,-32.58,,,,,,,
21608.61,-0.00116,-29.86,,,,,,,
21608.64,-0.00114,-27.16,,,,,,,
21608.67,-0.00111,-24.0,,,,,,,
21608.7,-0.00109,-20.65,,,,,,,
21608.73,-0.00106,-16.99,,,,,,,
21608.76,-0.00104,-13.28,,,,,,,
21608.79,-0.00101,-9.91,,,,,,,
21608.82,-0.00099,-6.4,,,,,,,
21608.85,-0.00096,-3.08,,,,,,,
21608.88,-0.00094,-0.06,,,,,,,
21608.9,-0.00091,3.25,,,,,,,
21608.93,-0.00089,6.8,,,,,,,
21608.96,-0.00086,9.97,,,,,,,
21608.98,-0.00083,12.47,,,,,,,
21609.01,-0.00081,15.49,,,,,,,
21609.03,-0.00078,18.47,,,,,,,
21609.06,-0.00076,21.53,,,,,,,
21609.08,-0.00073,24.01,,,,,,,
21609.12,-0.00071,26.17,,,,,,,
21609.16,-0.00068,28.51,,,,,,,
21609.21,-0.00066,30.76,,,,,,,
21609.26,-0.00063,32.7,,,,,,,
21609.3,-0.00061,35.1,,,,,,,
21609.34,-0.00058,37.67,,,,,,,
21609.36,-0.00056,40.57,,,,,,,
21609.38,-0.00053,43.9,,,,,,,
21609.4,-0.0005,46.44,,,,,,,
21609.41,-0.00048,49.01,,,,,,,
21609.43,-0.00045,51.51,,,,,,,
21609.45,-0.00043,53.77,,,,,,,
21609.47,-0.0004,55.97,,,,,,,
21609.48,-0.00038,58.12,,,,,,,
21609.51,-0.00035,60.12,,,,,,,
21609.54,-0.00033,62.24,,,,,,,
21609.58,-0.0003,64.49,,,,,,,
21609.61,-0.00028,66.41,,,,,,,
21609.65,-0.00025,68.34,,,,,,,
21609.67,-0.00022,70.25,,,,,,,
21609.7,-0.0002,72.22,,,,,,,
21609.73,-0.00017,74.37,,,,,,,
21609.76,-0.00015,76.45,,,,,,,
21609.79,-0.00012,78.39,,,,,,,
21609.81,-0.0001,80.33,,,,,,,
21609.84,-7e-05,82.54,,,,,,,
21609.84,-7e-05,83.06,,,,,,,
21609.86,-5e-05,84.86,,,,,,,
21609.88,-2e-05,87.0,,,,,,,
21609.89,1e-05,89.07,,,,,,,
21609.9,3e-05,90.98,,,,,,,
21609.92,6e-05,92.94,,,,,,,
21609.93,8e-05,95.03,,,,,,,
21609.95,0.00011,97.0,,,,,,,
21609.97,0.00014,99.08,,,,,,,
21609.98,0.00016,100.98,,,,,,,
21610.0,0.00019,102.82,,,,,,,
21610.02,0.00021,104.54,,,,,,,
21610.04,0.00024,106.13,,,,,,,
21610.06,0.00026,107.59,,,,,,,
21610.07,0.00029,109.16,,,,,,,
21610.09,0.00031,110.46,,,,,,,
21610.11,0.00034,111.66,,,,,,,
21610.13,0.00037,112.85,,,,,,,
21610.15,0.00039,113.84,,,,,,,
21610.18,0.00042,114.82,,,,,,,
21610.2,0.00044,115.64,,,,,,,
21610.23,0.00047,116.48,,,,,,,
21610.25,0.00049,117.25,,,,,,,
21610.28,0.00052,118.12,,,,,,,
21610.31,0.00054,119.0,,,,,,,
21610.34,0.00057,120.01,,,,,,,
21610.36,0.0006,121.01,,,,,,,
21610.39,0.00062,121.84,,,,,,,
21610.41,0.00065,122.79,,,,,,,
21610.44,0.00067,123.66,,,,,,,
21610.46,0.0007,124.55,,,,,,,
21610.49,0.00072,125.46,,,,,,,
21610.51,0.00075,126.35,,,,,,,
21610.54,0.00078,127.23,,,,,,,
21610.56,0.0008,128.15,,,,,,,
21610.59,0.00083,129.09,,,,,,,
21610.62,0.00085,130.04,,,,,,,
21610.65,0.00088,130.97,,,,,,,
21610.68,0.0009,132.08,,,,,,,
21610.7,0.00093,133.11,,,,,,,
21610.72,0.00095,134.01,,,,,,,
21610.75,0.00098,135.03,,,,,,,
21610.78,0.00101,136.0,,,,,,,
21610.8,0.00103,136.85,,,,,,,
21610.82,0.00106,137.75,,,,,,,
21610.84,0.00108,138.62,,,,,,,
21610.87,0.00111,139.36,,,,,,,
21610.89,0.00113,140.07,,,,,,,
21610.91,0.00116,140.74,,,,,,,
21610.94,0.00118,141.35,,,,,,,
21610.96,0.00121,141.82,,,,,,,
21610.98,0.00124,142.21,,,,,,,
21611.0,0.00126,142.68,,,,,,,
21611.02,0.00129,142.98,,,,,,,
21611.05,0.00131,143.2,,,,,,,
21611.08,0.00134,143.37,,,,,,,
21611.11,0.00136,143.52,,,,,,,
21611.14,0.00139,143.81,,,,,,,
21611.17,0.00141,144.28,,,,,,,
21611.2,0.00144,144.83,,,,,,,
21611.23,0.00146,145.56,,,,,,,
21611.25,0.00149,146.26,,,,,,,
21611.28,0.00152,146.91,,,,,,,
21611.3,0.00154,147.57,,,,,,,
21611.32,0.00157,148.12,,,,,,,
21611.34,0.00159,148.56,,,,,,,
21611.36,0.00162,149.01,,,,,,,
21611.39,0.00164,149.42,,,,,,,
21611.41,0.00167,149.69,,,,,,,
21611.43,0.0017,149.89,,,,,,,
21611.46,0.00172,150.04,,,,,,,
21611.48,0.00175,150.12,,,,,,,
21611.51,0.00177,150.18,,,,,,,
21611.53,0.0018,150.23,,,,,,,
21611.56,0.00182,150.15,,,,,,,
21611.59,0.00185,150.09,,,,,,,
21611.62,0.00187,150.16,,,,,,,
21611.65,0.0019,150.18,,,,,,,
