time,strain,stress,temperature,type,strain_rate,max_strain,title,youngs,poissons
0.0,6e-05,-2.36,950,fatigue,0.0001,0.00502,43-3,144000,0.3
0.17,8e-05,0.8,,,,,,,
0.44,0.00011,4.49,,,,,,,
1.17,0.00015,10.99,,,,,,,
1.41,0.00016,12.53,,,,,,,
1.77,0.00021,19.16,,,,,,,
2.17,0.00024,23.18,,,,,,,
2.4,0.00026,26.74,,,,,,,
3.0,0.00031,36.12,,,,,,,
3.17,0.00035,40.98,,,,,,,
3.24,0.00036,42.77,,,,,,,
3.64,0.00041,48.93,,,,,,,
4.17,0.00046,55.33,,,,,,,
4.21,0.00046,55.89,,,,,,,
4.62,0.00051,63.17,,,,,,,
5.03,0.00056,63.39,,,,,,,
5.17,0.00057,63.47,,,,,,,
5.65,0.00061,66.39,,,,,,,
6.17,0.00066,74.81,,,,,,,
6.22,0.00066,75.5,,,,,,,
6.73,0.00071,81.69,,,,,,,
7.17,0.00076,84.74,,,,,,,
7.21,0.00076,85.07,,,,,,,
7.71,0.00081,90.56,,,,,,,
8.17,0.00086,95.04,,,,,,,
8.19,0.00086,95.16,,,,,,,
8.84,0.00091,100.89,,,,,,,
9.17,0.00095,107.53,,,,,,,
9.29,0.00096,109.29,,,,,,,
9.74,0.00101,113.25,,,,,,,
10.17,0.00105,114.31,,,,,,,
10.25,0.00106,114.99,,,,,,,
10.84,0.00111,121.81,,,,,,,
11.17,0.00115,125.76,,,,,,,
11.3,0.00116,126.96,,,,,,,
11.84,0.00121,130.83,,,,,,,
12.17,0.00125,133.47,,,,,,,
12.24,0.00126,133.74,,,,,,,
12.78,0.00131,136.13,,,,,,,
13.17,0.00136,136.35,,,,,,,
13.18,0.00136,136.35,,,,,,,
13.72,0.00141,135.21,,,,,,,
14.17,0.00146,135.95,,,,,,,
14.25,0.00146,136.07,,,,,,,
14.69,0.00151,137.61,,,,,,,
15.14,0.00156,136.28,,,,,,,
15.17,0.00157,136.19,,,,,,,
15.63,0.00161,134.03,,,,,,,
16.13,0.00166,132.82,,,,,,,
16.17,0.00167,132.78,,,,,,,
16.5,0.00171,132.7,,,,,,,
17.09,0.00176,129.81,,,,,,,
17.17,0.00177,129.76,,,,,,,
17.52,0.00181,129.7,,,,,,,
17.99,0.00186,127.02,,,,,,,
18.17,0.00188,126.12,,,,,,,
18.53,0.00191,125.58,,,,,,,
19.04,0.00196,125.5,,,,,,,
19.17,0.00198,125.26,,,,,,,
19.41,0.00201,123.25,,,,,,,
20.09,0.00206,120.24,,,,,,,
20.17,0.00207,120.73,,,,,,,
20.45,0.00212,121.77,,,,,,,
20.9,0.00217,120.47,,,,,,,
21.17,0.0022,116.71,,,,,,,
21.29,0.00222,115.32,,,,,,,
21.95,0.00227,110.13,,,,,,,
22.17,0.00229,110.16,,,,,,,
22.47,0.00232,111.21,,,,,,,
23.02,0.00237,113.4,,,,,,,
23.17,0.0024,113.84,,,,,,,
23.52,0.00242,112.87,,,,,,,
23.89,0.00247,114.04,,,,,,,
24.17,0.00249,112.38,,,,,,,
24.5,0.00252,112.05,,,,,,,
24.96,0.00257,116.35,,,,,,,
25.17,0.00258,116.63,,,,,,,
25.46,0.00262,117.26,,,,,,,
25.94,0.00267,115.4,,,,,,,
26.17,0.00269,114.04,,,,,,,
26.43,0.00272,112.85,,,,,,,
26.92,0.00277,112.44,,,,,,,
27.17,0.00279,112.54,,,,,,,
27.42,0.00282,112.04,,,,,,,
27.91,0.00287,113.97,,,,,,,
28.17,0.0029,112.74,,,,,,,
28.32,0.00292,111.48,,,,,,,
28.81,0.00297,107.48,,,,,,,
29.17,0.003,104.92,,,,,,,
29.38,0.00302,104.68,,,,,,,
29.94,0.00307,106.9,,,,,,,
30.17,0.0031,107.29,,,,,,,
30.31,0.00312,106.51,,,,,,,
31.06,0.00317,110.0,,,,,,,
31.17,0.00319,111.39,,,,,,,
31.4,0.00322,111.18,,,,,,,
31.86,0.00327,108.48,,,,,,,
32.17,0.00329,108.14,,,,,,,
32.42,0.00332,108.78,,,,,,,
32.77,0.00337,108.64,,,,,,,
33.17,0.0034,104.56,,,,,,,
33.44,0.00342,104.92,,,,,,,
33.83,0.00347,104.22,,,,,,,
34.17,0.0035,103.39,,,,,,,
34.4,0.00352,103.25,,,,,,,
34.89,0.00357,105.26,,,,,,,
35.17,0.00359,106.48,,,,,,,
35.36,0.00362,107.92,,,,,,,
35.96,0.00367,108.66,,,,,,,
36.17,0.00369,108.92,,,,,,,
36.4,0.00372,108.85,,,,,,,
36.71,0.00377,107.01,,,,,,,
37.17,0.00379,99.85,,,,,,,
37.39,0.00382,100.74,,,,,,,
37.85,0.00387,103.23,,,,,,,
38.17,0.00389,103.44,,,,,,,
38.45,0.00392,104.98,,,,,,,
38.86,0.00397,105.16,,,,,,,
39.17,0.00399,105.43,,,,,,,
39.34,0.00402,105.87,,,,,,,
39.83,0.00407,101.76,,,,,,,
40.17,0.00409,100.51,,,,,,,
40.26,0.00412,101.14,,,,,,,
41.07,0.00417,103.24,,,,,,,
41.17,0.00419,104.5,,,,,,,
41.48,0.00422,106.53,,,,,,,
41.85,0.00427,105.98,,,,,,,
42.17,0.00429,105.38,,,,,,,
42.42,0.00432,107.15,,,,,,,
42.91,0.00437,106.72,,,,,,,
43.17,0.0044,106.47,,,,,,,
44.17,0.00433,90.94,,,,,,,
44.38,0.00432,87.0,,,,,,,
44.92,0.00427,74.58,,,,,,,
45.17,0.00424,69.73,,,,,,,
45.37,0.00422,66.41,,,,,,,
45.87,0.00417,58.92,,,,,,,
46.17,0.00414,55.44,,,,,,,
46.37,0.00412,52.09,,,,,,,
46.87,0.00407,49.07,,,,,,,
47.17,0.00404,45.31,,,,,,,
47.54,0.00402,38.67,,,,,,,
48.01,0.00397,30.53,,,,,,,
48.17,0.00395,28.64,,,,,,,
48.61,0.00392,20.99,,,,,,,
48.98,0.00387,15.03,,,,,,,
49.17,0.00385,13.01,,,,,,,
49.47,0.00382,9.61,,,,,,,
49.95,0.00377,7.35,,,,,,,
50.17,0.00375,6.4,,,,,,,
50.46,0.00372,4.14,,,,,,,
50.96,0.00367,1.09,,,,,,,
51.17,0.00367,2.01,,,,,,,
51.9,0.00362,-6.21,,,,,,,
52.17,0.00358,-11.35,,,,,,,
52.33,0.00357,-12.44,,,,,,,
52.77,0.00352,-14.89,,,,,,,
53.16,0.00347,-20.17,,,,,,,
53.17,0.00347,-20.64,,,,,,,
53.51,0.00342,-26.92,,,,,,,
53.9,0.00337,-32.71,,,,,,,
54.17,0.00334,-33.06,,,,,,,
54.35,0.00332,-33.54,,,,,,,
54.95,0.00327,-39.61,,,,,,,
55.17,0.00325,-41.61,,,,,,,
55.49,0.00322,-46.08,,,,,,,
56.0,0.00317,-48.71,,,,,,,
56.17,0.00315,-50.95,,,,,,,
56.51,0.00312,-52.57,,,,,,,
56.92,0.00307,-54.5,,,,,,,
57.17,0.00305,-56.03,,,,,,,
57.5,0.00302,-59.45,,,,,,,
58.1,0.00297,-64.64,,,,,,,
58.17,0.00296,-65.87,,,,,,,
58.44,0.00292,-68.51,,,,,,,
59.03,0.00287,-74.85,,,,,,,
59.17,0.00285,-75.9,,,,,,,
59.42,0.00282,-76.17,,,,,,,
60.03,0.00277,-78.95,,,,,,,
60.17,0.00276,-80.23,,,,,,,
60.5,0.00272,-83.44,,,,,,,
61.02,0.00267,-85.02,,,,,,,
61.17,0.00265,-85.78,,,,,,,
61.53,0.00262,-88.23,,,,,,,
62.01,0.00257,-91.49,,,,,,,
62.17,0.00256,-92.71,,,,,,,
62.35,0.00252,-93.41,,,,,,,
62.96,0.00247,-92.14,,,,,,,
63.17,0.00244,-92.38,,,,,,,
63.4,0.00242,-92.41,,,,,,,
63.88,0.00237,-92.28,,,,,,,
64.17,0.00234,-92.62,,,,,,,
64.35,0.00232,-92.51,,,,,,,
64.92,0.00227,-91.62,,,,,,,
65.17,0.00223,-93.22,,,,,,,
65.31,0.00222,-92.67,,,,,,,
65.89,0.00217,-93.44,,,,,,,
66.17,0.00214,-93.28,,,,,,,
66.35,0.00212,-94.1,,,,,,,
67.06,0.00207,-104.7,,,,,,,
67.17,0.00205,-106.68,,,,,,,
67.45,0.00202,-108.61,,,,,,,
67.82,0.00197,-109.2,,,,,,,
68.17,0.00193,-107.56,,,,,,,
68.3,0.00192,-107.2,,,,,,,
68.81,0.00187,-104.99,,,,,,,
69.17,0.00183,-103.97,,,,,,,
69.32,0.00182,-104.12,,,,,,,
69.74,0.00177,-103.31,,,,,,,
70.17,0.00172,-101.72,,,,,,,
70.32,0.00172,-101.59,,,,,,,
70.74,0.00167,-100.41,,,,,,,
71.17,0.00163,-100.32,,,,,,,
71.26,0.00162,-100.39,,,,,,,
71.8,0.00157,-99.85,,,,,,,
72.17,0.00152,-100.52,,,,,,,
72.24,0.00152,-100.36,,,,,,,
72.78,0.00147,-99.89,,,,,,,
73.17,0.00142,-99.32,,,,,,,
73.22,0.00142,-99.08,,,,,,,
73.74,0.00137,-97.89,,,,,,,
74.17,0.00133,-99.7,,,,,,,
74.27,0.00132,-100.72,,,,,,,
74.74,0.00127,-100.57,,,,,,,
75.17,0.00122,-99.02,,,,,,,
75.2,0.00122,-98.92,,,,,,,
75.65,0.00116,-97.68,,,,,,,
76.17,0.00112,-97.03,,,,,,,
76.21,0.00111,-97.02,,,,,,,
76.86,0.00106,-103.34,,,,,,,
77.17,0.00102,-106.35,,,,,,,
77.2,0.00101,-106.33,,,,,,,
77.67,0.00096,-104.64,,,,,,,
78.17,0.00092,-103.57,,,,,,,
78.22,0.00091,-103.71,,,,,,,
78.63,0.00086,-102.9,,,,,,,
79.17,0.00083,-103.76,,,,,,,
79.34,0.00081,-106.17,,,,,,,
79.61,0.00076,-107.64,,,,,,,
80.06,0.00071,-102.72,,,,,,,
80.17,0.00071,-101.97,,,,,,,
80.62,0.00066,-103.53,,,,,,,
81.12,0.00061,-100.12,,,,,,,
81.17,0.00061,-99.95,,,,,,,
81.69,0.00056,-101.05,,,,,,,
82.17,0.00052,-99.53,,,,,,,
82.26,0.00051,-99.86,,,,,,,
82.73,0.00046,-103.81,,,,,,,
83.17,0.00042,-106.31,,,,,,,
83.21,0.00041,-106.39,,,,,,,
83.54,0.00036,-106.33,,,,,,,
84.17,0.00032,-104.47,,,,,,,
84.23,0.00031,-104.71,,,,,,,
84.73,0.00026,-105.22,,,,,,,
85.17,0.00022,-107.03,,,,,,,
85.23,0.00021,-107.38,,,,,,,
85.75,0.00016,-109.87,,,,,,,
86.01,0.00011,-109.5,,,,,,,
86.17,0.00011,-107.76,,,,,,,
86.69,6e-05,-107.03,,,,,,,
87.17,2e-05,-105.78,,,,,,,
87.22,1e-05,-105.92,,,,,,,
87.71,-4e-05,-104.67,,,,,,,
88.09,-9e-05,-104.25,,,,,,,
88.17,-0.0001,-103.66,,,,,,,
88.66,-0.00014,-101.83,,,,,,,
89.06,-0.00019,-102.64,,,,,,,
89.17,-0.0002,-101.89,,,,,,,
89.68,-0.00024,-100.52,,,,,,,
90.1,-0.00029,-99.59,,,,,,,
90.17,-0.0003,-99.44,,,,,,,
90.75,-0.00034,-104.35,,,,,,,
91.11,-0.00039,-105.95,,,,,,,
91.17,-0.00039,-105.67,,,,,,,
91.59,-0.00044,-105.48,,,,,,,
92.14,-0.00049,-105.81,,,,,,,
92.17,-0.00049,-105.9,,,,,,,
92.57,-0.00054,-104.51,,,,,,,
93.08,-0.00059,-101.96,,,,,,,
93.17,-0.00059,-101.67,,,,,,,
93.68,-0.00064,-103.97,,,,,,,
94.17,-0.00069,-106.88,,,,,,,
94.17,-0.00069,-106.87,,,,,,,
94.62,-0.00074,-107.52,,,,,,,
95.17,-0.00077,-108.04,,,,,,,
95.25,-0.00079,-109.15,,,,,,,
95.62,-0.00084,-110.37,,,,,,,
96.17,-0.00089,-112.58,,,,,,,
96.17,-0.00089,-112.56,,,,,,,
96.59,-0.00094,-110.48,,,,,,,
97.04,-0.00099,-107.38,,,,,,,
97.17,-0.001,-106.11,,,,,,,
97.59,-0.00104,-104.71,,,,,,,
98.02,-0.00109,-103.82,,,,,,,
98.17,-0.0011,-102.56,,,,,,,
98.56,-0.00114,-101.96,,,,,,,
99.11,-0.00119,-101.3,,,,,,,
99.17,-0.0012,-101.37,,,,,,,
99.59,-0.00124,-100.27,,,,,,,
100.12,-0.00129,-102.24,,,,,,,
100.17,-0.00129,-102.29,,,,,,,
100.59,-0.00134,-101.7,,,,,,,
101.17,-0.00139,-101.34,,,,,,,
101.17,-0.00139,-101.36,,,,,,,
101.67,-0.00144,-102.96,,,,,,,
102.14,-0.00149,-105.28,,,,,,,
102.17,-0.00149,-105.35,,,,,,,
102.7,-0.00154,-104.83,,,,,,,
103.17,-0.00158,-106.0,,,,,,,
103.3,-0.00159,-107.34,,,,,,,
103.55,-0.00164,-109.14,,,,,,,
104.17,-0.00169,-109.9,,,,,,,
104.18,-0.00169,-109.96,,,,,,,
104.56,-0.00174,-111.56,,,,,,,
105.09,-0.00179,-108.22,,,,,,,
105.17,-0.0018,-107.86,,,,,,,
105.58,-0.00184,-106.68,,,,,,,
106.12,-0.00189,-104.59,,,,,,,
106.17,-0.0019,-104.6,,,,,,,
106.64,-0.00194,-107.29,,,,,,,
107.17,-0.00199,-107.35,,,,,,,
107.17,-0.00199,-107.38,,,,,,,
107.71,-0.00204,-108.71,,,,,,,
108.13,-0.00209,-108.52,,,,,,,
108.17,-0.0021,-108.37,,,,,,,
108.76,-0.00214,-109.73,,,,,,,
109.17,-0.00218,-114.02,,,,,,,
109.23,-0.00219,-114.8,,,,,,,
109.58,-0.00224,-114.46,,,,,,,
110.15,-0.00229,-111.26,,,,,,,
110.17,-0.00229,-111.23,,,,,,,
110.73,-0.00234,-114.29,,,,,,,
111.02,-0.00239,-113.68,,,,,,,
111.17,-0.0024,-111.99,,,,,,,
111.56,-0.00244,-110.22,,,,,,,
112.13,-0.00249,-107.41,,,,,,,
112.17,-0.0025,-107.34,,,,,,,
112.62,-0.00254,-108.04,,,,,,,
113.02,-0.00259,-106.3,,,,,,,
113.17,-0.0026,-105.32,,,,,,,
113.68,-0.00264,-106.35,,,,,,,
114.17,-0.00268,-110.28,,,,,,,
114.26,-0.00269,-111.26,,,,,,,
114.62,-0.00274,-113.18,,,,,,,
115.17,-0.00279,-112.17,,,,,,,
115.2,-0.00279,-112.25,,,,,,,
115.63,-0.00284,-113.37,,,,,,,
116.1,-0.00289,-110.48,,,,,,,
116.17,-0.0029,-110.15,,,,,,,
116.63,-0.00294,-109.18,,,,,,,
117.11,-0.00299,-107.56,,,,,,,
117.17,-0.003,-107.38,,,,,,,
117.72,-0.00304,-106.05,,,,,,,
118.13,-0.00309,-107.54,,,,,,,
118.17,-0.0031,-107.55,,,,,,,
118.7,-0.00314,-107.33,,,,,,,
119.17,-0.00319,-107.79,,,,,,,
119.19,-0.00319,-107.82,,,,,,,
119.59,-0.00324,-106.95,,,,,,,
120.14,-0.00329,-107.68,,,,,,,
120.17,-0.0033,-107.7,,,,,,,
120.6,-0.00334,-106.74,,,,,,,
121.17,-0.00339,-108.14,,,,,,,
121.18,-0.00339,-108.18,,,,,,,
121.65,-0.00344,-107.24,,,,,,,
122.12,-0.00349,-107.15,,,,,,,
122.17,-0.0035,-107.07,,,,,,,
122.66,-0.00354,-106.23,,,,,,,
123.17,-0.00359,-107.36,,,,,,,
123.2,-0.00359,-107.48,,,,,,,
123.67,-0.00364,-109.17,,,,,,,
124.17,-0.00369,-112.57,,,,,,,
124.23,-0.00369,-113.01,,,,,,,
124.69,-0.00374,-114.79,,,,,,,
125.17,-0.00379,-114.93,,,,,,,
125.2,-0.00379,-115.03,,,,,,,
125.65,-0.00384,-114.26,,,,,,,
126.01,-0.00389,-112.66,,,,,,,
126.17,-0.0039,-110.89,,,,,,,
126.64,-0.00394,-108.66,,,,,,,
127.14,-0.00399,-109.82,,,,,,,
127.17,-0.004,-109.81,,,,,,,
127.74,-0.00404,-108.89,,,,,,,
128.17,-0.00409,-108.74,,,,,,,
128.18,-0.00409,-108.73,,,,,,,
128.68,-0.00414,-109.08,,,,,,,
129.16,-0.00419,-108.85,,,,,,,
129.17,-0.0042,-108.9,,,,,,,
129.68,-0.00424,-108.41,,,,,,,
130.17,-0.00429,-109.91,,,,,,,
130.26,-0.00429,-110.62,,,,,,,
130.76,-0.00434,-113.22,,,,,,,
131.17,-0.00439,-117.11,,,,,,,
131.19,-0.0044,-117.16,,,,,,,
132.17,-0.00435,-91.79,,,,,,,
132.17,-0.00434,-91.65,,,,,,,
132.72,-0.0043,-79.86,,,,,,,
133.12,-0.00424,-71.13,,,,,,,
133.17,-0.00424,-70.2,,,,,,,
133.69,-0.00419,-61.48,,,,,,,
134.17,-0.00415,-56.72,,,,,,,
134.24,-0.00414,-55.58,,,,,,,
134.67,-0.00409,-47.15,,,,,,,
135.17,-0.00405,-40.67,,,,,,,
135.25,-0.00404,-39.54,,,,,,,
135.71,-0.00399,-34.54,,,,,,,
136.17,-0.00395,-29.81,,,,,,,
136.22,-0.00394,-29.37,,,,,,,
136.82,-0.00389,-22.55,,,,,,,
137.16,-0.00384,-18.63,,,,,,,
137.17,-0.00384,-18.64,,,,,,,
137.69,-0.00379,-13.48,,,,,,,
138.1,-0.00374,-13.63,,,,,,,
138.17,-0.00375,-13.66,,,,,,,
138.82,-0.00369,-3.91,,,,,,,
139.17,-0.00365,1.19,,,,,,,
139.31,-0.00364,2.51,,,,,,,
139.71,-0.00359,6.26,,,,,,,
140.17,-0.00356,9.6,,,,,,,
140.34,-0.00354,11.1,,,,,,,
140.9,-0.00349,14.86,,,,,,,
141.17,-0.0035,15.06,,,,,,,
141.48,-0.00344,20.65,,,,,,,
141.87,-0.00339,23.44,,,,,,,
142.17,-0.00339,25.45,,,,,,,
142.66,-0.00334,30.4,,,,,,,
143.07,-0.00329,36.8,,,,,,,
143.17,-0.00327,39.85,,,,,,,
143.25,-0.00324,41.56,,,,,,,
143.76,-0.00319,45.72,,,,,,,
144.17,-0.00315,49.02,,,,,,,
144.28,-0.00314,49.77,,,,,,,
144.8,-0.00309,53.63,,,,,,,
145.17,-0.00305,58.02,,,,,,,
145.27,-0.00304,58.66,,,,,,,
145.83,-0.00299,63.87,,,,,,,
146.17,-0.00296,69.28,,,,,,,
146.35,-0.00294,71.46,,,,,,,
146.74,-0.00289,74.59,,,,,,,
147.17,-0.00284,78.36,,,,,,,
147.21,-0.00284,78.51,,,,,,,
147.58,-0.00279,77.72,,,,,,,
148.17,-0.00275,78.02,,,,,,,
148.21,-0.00274,78.17,,,,,,,
148.7,-0.00269,80.51,,,,,,,
149.17,-0.00265,83.43,,,,,,,
149.24,-0.00264,83.81,,,,,,,
149.71,-0.00259,85.42,,,,,,,
150.17,-0.00255,88.59,,,,,,,
150.2,-0.00254,88.69,,,,,,,
150.77,-0.00249,90.49,,,,,,,
151.17,-0.00245,93.06,,,,,,,
151.23,-0.00244,93.47,,,,,,,
151.7,-0.00239,95.88,,,,,,,
152.17,-0.00234,96.21,,,,,,,
152.18,-0.00234,96.22,,,,,,,
152.69,-0.00229,99.08,,,,,,,
153.17,-0.00225,101.52,,,,,,,
153.21,-0.00224,101.77,,,,,,,
153.73,-0.00219,104.29,,,,,,,
154.12,-0.00214,104.72,,,,,,,
154.17,-0.00214,104.5,,,,,,,
154.64,-0.00209,105.15,,,,,,,
155.16,-0.00204,105.75,,,,,,,
155.17,-0.00204,105.77,,,,,,,
155.46,-0.00199,105.52,,,,,,,
156.06,-0.00194,102.87,,,,,,,
156.17,-0.00193,102.41,,,,,,,
156.65,-0.00189,103.14,,,,,,,
157.08,-0.00184,102.91,,,,,,,
157.17,-0.00184,102.94,,,,,,,
157.58,-0.00179,103.55,,,,,,,
157.98,-0.00174,103.35,,,,,,,
158.17,-0.00172,101.82,,,,,,,
158.49,-0.00169,100.08,,,,,,,
158.99,-0.00164,99.19,,,,,,,
159.17,-0.00162,98.51,,,,,,,
159.6,-0.00159,100.88,,,,,,,
160.01,-0.00154,102.5,,,,,,,
160.17,-0.00152,102.2,,,,,,,
160.49,-0.00149,101.04,,,,,,,
160.93,-0.00144,99.33,,,,,,,
161.17,-0.00142,98.2,,,,,,,
161.55,-0.00139,100.43,,,,,,,
161.98,-0.00134,102.4,,,,,,,
162.17,-0.00131,101.73,,,,,,,
162.44,-0.00129,99.57,,,,,,,
163.01,-0.00124,99.54,,,,,,,
163.17,-0.00121,99.97,,,,,,,
163.47,-0.00119,98.49,,,,,,,
163.93,-0.00114,99.08,,,,,,,
164.17,-0.00112,98.31,,,,,,,
164.36,-0.00109,98.5,,,,,,,
164.83,-0.00104,96.3,,,,,,,
165.17,-0.00101,94.32,,,,,,,
165.38,-0.00099,94.28,,,,,,,
165.93,-0.00094,91.61,,,,,,,
166.17,-0.00092,92.24,,,,,,,
166.56,-0.00089,96.29,,,,,,,
167.0,-0.00084,100.48,,,,,,,
167.17,-0.00082,101.47,,,,,,,
167.51,-0.00079,103.35,,,,,,,
168.05,-0.00074,103.71,,,,,,,
168.17,-0.00072,104.75,,,,,,,
168.48,-0.00069,105.67,,,,,,,
168.95,-0.00064,105.12,,,,,,,
169.17,-0.0006,104.0,,,,,,,
169.44,-0.00059,102.93,,,,,,,
169.82,-0.00054,100.89,,,,,,,
170.17,-0.00052,98.99,,,,,,,
170.53,-0.00049,100.43,,,,,,,
170.93,-0.00044,100.91,,,,,,,
171.17,-0.00042,102.04,,,,,,,
171.54,-0.00039,102.94,,,,,,,
171.92,-0.00034,105.47,,,,,,,
172.17,-0.00031,104.95,,,,,,,
172.32,-0.00029,103.93,,,,,,,
172.84,-0.00024,100.65,,,,,,,
173.17,-0.0002,99.1,,,,,,,
173.57,-0.00019,99.24,,,,,,,
173.87,-0.00014,101.96,,,,,,,
174.17,-0.00011,102.03,,,,,,,
174.47,-9e-05,104.28,,,,,,,
174.85,-4e-05,105.73,,,,,,,
175.17,-2e-05,105.68,,,,,,,
175.4,1e-05,106.02,,,,,,,
175.92,6e-05,104.9,,,,,,,
176.17,8e-05,104.78,,,,,,,
176.43,0.00011,106.25,,,,,,,
176.89,0.00016,106.25,,,,,,,
177.17,0.00019,105.34,,,,,,,
177.36,0.00021,104.6,,,,,,,
177.88,0.00026,105.14,,,,,,,
178.17,0.00029,104.02,,,,,,,
178.38,0.00031,103.63,,,,,,,
178.88,0.00036,101.96,,,,,,,
179.17,0.0004,101.07,,,,,,,
179.19,0.00041,101.0,,,,,,,
179.94,0.00046,99.09,,,,,,,
180.17,0.00048,100.1,,,,,,,
180.38,0.00051,102.1,,,,,,,
180.96,0.00056,104.06,,,,,,,
181.17,0.00059,104.8,,,,,,,
181.32,0.00061,104.16,,,,,,,
182.01,0.00066,101.71,,,,,,,
182.17,0.00069,102.93,,,,,,,
182.41,0.00071,103.11,,,,,,,
182.92,0.00076,103.79,,,,,,,
183.17,0.00079,104.14,,,,,,,
183.4,0.00081,104.31,,,,,,,
183.9,0.00086,103.29,,,,,,,
184.17,0.00088,104.15,,,,,,,
184.47,0.00091,105.47,,,,,,,
184.91,0.00096,104.59,,,,,,,
185.17,0.001,103.79,,,,,,,
185.41,0.00101,103.14,,,,,,,
185.8,0.00106,101.36,,,,,,,
186.17,0.00111,97.18,,,,,,,
186.2,0.00111,96.73,,,,,,,
186.78,0.00116,93.55,,,,,,,
187.17,0.0012,92.21,,,,,,,
187.42,0.00121,92.4,,,,,,,
188.05,0.00126,98.64,,,,,,,
188.17,0.0013,100.33,,,,,,,
188.36,0.00131,100.47,,,,,,,
188.84,0.00136,102.39,,,,,,,
189.17,0.00138,102.35,,,,,,,
189.37,0.00141,103.61,,,,,,,
189.76,0.00146,103.57,,,,,,,
190.17,0.00149,101.19,,,,,,,
190.49,0.00151,102.02,,,,,,,
190.85,0.00156,103.34,,,,,,,
191.17,0.0016,103.4,,,,,,,
191.33,0.00161,103.13,,,,,,,
191.98,0.00166,102.66,,,,,,,
192.17,0.0017,104.07,,,,,,,
192.38,0.00171,103.32,,,,,,,
192.85,0.00176,105.29,,,,,,,
193.17,0.00179,104.54,,,,,,,
193.5,0.00181,106.03,,,,,,,
193.94,0.00186,109.86,,,,,,,
194.17,0.00191,109.18,,,,,,,
194.25,0.00191,108.14,,,,,,,
194.85,0.00197,105.98,,,,,,,
195.17,0.002,105.1,,,,,,,
195.29,0.00202,104.65,,,,,,,
195.82,0.00207,100.21,,,,,,,
196.17,0.00208,101.38,,,,,,,
196.43,0.00212,103.25,,,,,,,
196.99,0.00217,104.12,,,,,,,
197.17,0.00218,105.82,,,,,,,
197.44,0.00222,107.9,,,,,,,
197.86,0.00227,107.17,,,,,,,
198.17,0.00229,106.21,,,,,,,
198.33,0.00232,106.52,,,,,,,
199.0,0.00237,106.82,,,,,,,
199.17,0.00239,107.97,,,,,,,
199.38,0.00242,107.63,,,,,,,
199.75,0.00247,105.95,,,,,,,
200.17,0.0025,102.04,,,,,,,
200.34,0.00252,101.9,,,,,,,
200.88,0.00257,98.0,,,,,,,
201.17,0.0026,98.21,,,,,,,
201.27,0.00262,98.05,,,,,,,
202.01,0.00267,99.94,,,,,,,
202.17,0.00268,102.25,,,,,,,
202.48,0.00272,106.18,,,,,,,
202.9,0.00277,106.7,,,,,,,
203.17,0.00279,107.14,,,,,,,
203.37,0.00282,107.56,,,,,,,
203.88,0.00287,107.73,,,,,,,
204.17,0.00289,106.37,,,,,,,
204.52,0.00292,106.24,,,,,,,
204.88,0.00297,108.54,,,,,,,
205.17,0.003,107.95,,,,,,,
205.39,0.00302,107.21,,,,,,,
205.79,0.00307,106.48,,,,,,,
206.17,0.00309,104.97,,,,,,,
206.43,0.00312,106.56,,,,,,,
207.01,0.00317,108.49,,,,,,,
207.17,0.00319,109.92,,,,,,,
207.46,0.00322,111.31,,,,,,,
207.86,0.00327,111.61,,,,,,,
208.17,0.0033,110.93,,,,,,,
208.4,0.00332,109.72,,,,,,,
208.93,0.00337,108.55,,,,,,,
209.17,0.0034,108.44,,,,,,,
209.39,0.00342,108.18,,,,,,,
209.9,0.00347,107.24,,,,,,,
210.17,0.00349,106.45,,,,,,,
210.38,0.00352,106.3,,,,,,,
210.9,0.00357,106.31,,,,,,,
211.17,0.0036,106.2,,,,,,,
211.43,0.00362,106.04,,,,,,,
211.95,0.00367,105.5,,,,,,,
212.17,0.0037,105.77,,,,,,,
212.35,0.00372,105.15,,,,,,,
212.88,0.00377,104.19,,,,,,,
213.17,0.00379,103.79,,,,,,,
213.44,0.00382,104.93,,,,,,,
213.87,0.00387,105.48,,,,,,,
214.17,0.00389,104.96,,,,,,,
214.35,0.00392,105.12,,,,,,,
214.96,0.00397,104.77,,,,,,,
215.17,0.00399,105.38,,,,,,,
215.51,0.00402,106.63,,,,,,,
215.91,0.00407,108.11,,,,,,,
216.17,0.00409,107.59,,,,,,,
216.41,0.00412,107.34,,,,,,,
216.84,0.00417,106.07,,,,,,,
217.17,0.0042,104.26,,,,,,,
217.35,0.00422,104.09,,,,,,,
217.94,0.00427,102.47,,,,,,,
218.17,0.00428,103.51,,,,,,,
218.36,0.00432,104.9,,,,,,,
218.87,0.00437,104.26,,,,,,,
219.17,0.00439,103.62,,,,,,,
219.37,0.00442,104.63,,,,,,,
220.02,0.00447,106.56,,,,,,,
220.17,0.00449,107.64,,,,,,,
220.36,0.00452,108.55,,,,,,,
220.95,0.00457,108.48,,,,,,,
221.17,0.00459,108.56,,,,,,,
222.17,0.00453,90.61,,,,,,,
222.34,0.00452,87.04,,,,,,,
222.8,0.00447,79.11,,,,,,,
223.17,0.00444,74.08,,,,,,,
223.5,0.00442,67.03,,,,,,,
223.98,0.00437,56.9,,,,,,,
224.17,0.00435,53.47,,,,,,,
224.46,0.00432,48.1,,,,,,,
224.88,0.00427,44.81,,,,,,,
225.17,0.00424,43.27,,,,,,,
225.55,0.00422,38.31,,,,,,,
225.92,0.00417,32.97,,,,,,,
226.17,0.00414,31.75,,,,,,,
226.43,0.00412,29.75,,,,,,,
227.03,0.00407,25.16,,,,,,,
227.17,0.00405,23.36,,,,,,,
227.49,0.00402,19.9,,,,,,,
228.01,0.00397,14.38,,,,,,,
228.17,0.00395,12.72,,,,,,,
228.54,0.00392,9.37,,,,,,,
229.03,0.00387,3.7,,,,,,,
229.17,0.00386,2.21,,,,,,,
230.03,0.00382,-4.59,,,,,,,
230.17,0.00381,-6.9,,,,,,,
230.5,0.00377,-14.96,,,,,,,
231.06,0.00372,-23.46,,,,,,,
231.17,0.00369,-27.58,,,,,,,
231.25,0.00367,-30.39,,,,,,,
231.57,0.00362,-36.24,,,,,,,
231.99,0.00357,-40.75,,,,,,,
232.17,0.00355,-41.89,,,,,,,
232.45,0.00352,-43.8,,,,,,,
233.03,0.00347,-46.2,,,,,,,
233.17,0.00345,-48.11,,,,,,,
233.45,0.00342,-50.27,,,,,,,
233.9,0.00337,-51.59,,,,,,,
234.17,0.00335,-52.13,,,,,,,
234.41,0.00332,-53.96,,,,,,,
234.95,0.00327,-56.58,,,,,,,
235.17,0.00325,-58.03,,,,,,,
235.43,0.00322,-58.82,,,,,,,
236.02,0.00317,-62.17,,,,,,,
236.17,0.00315,-63.73,,,,,,,
236.48,0.00312,-65.23,,,,,,,
236.97,0.00307,-68.81,,,,,,,
237.17,0.00305,-70.44,,,,,,,
237.5,0.00302,-72.72,,,,,,,
237.9,0.00297,-74.41,,,,,,,
238.17,0.00295,-74.68,,,,,,,
238.41,0.00292,-75.95,,,,,,,
239.15,0.00287,-82.41,,,,,,,
239.17,0.00286,-82.82,,,,,,,
239.5,0.00282,-87.23,,,,,,,
240.02,0.00277,-90.83,,,,,,,
240.17,0.00275,-91.67,,,,,,,
240.44,0.00272,-93.36,,,,,,,
240.84,0.00267,-91.94,,,,,,,
241.17,0.00265,-90.13,,,,,,,
241.5,0.00262,-92.19,,,,,,,
241.99,0.00257,-93.79,,,,,,,
242.17,0.00255,-95.19,,,,,,,
242.45,0.00252,-97.59,,,,,,,
242.95,0.00247,-97.7,,,,,,,
243.17,0.00244,-97.93,,,,,,,
243.43,0.00242,-97.25,,,,,,,
243.92,0.00237,-96.95,,,,,,,
244.17,0.00234,-97.67,,,,,,,
244.55,0.00232,-101.8,,,,,,,
244.93,0.00227,-103.82,,,,,,,
245.17,0.00224,-105.63,,,,,,,
245.48,0.00222,-107.29,,,,,,,
245.85,0.00217,-107.15,,,,,,,
246.17,0.00213,-108.3,,,,,,,
246.24,0.00212,-108.0,,,,,,,
246.78,0.00207,-105.26,,,,,,,
247.17,0.00202,-102.9,,,,,,,
247.25,0.00202,-102.14,,,,,,,
247.92,0.00197,-102.32,,,,,,,
248.17,0.00192,-102.34,,,,,,,
248.23,0.00192,-101.87,,,,,,,
248.74,0.00187,-99.3,,,,,,,
249.17,0.00182,-98.42,,,,,,,
249.28,0.00182,-98.33,,,,,,,
249.7,0.00177,-97.29,,,,,,,
250.17,0.00173,-95.87,,,,,,,
250.28,0.00171,-96.49,,,,,,,
250.83,0.00166,-98.24,,,,,,,
251.17,0.00163,-99.34,,,,,,,
251.26,0.00161,-99.9,,,,,,,
251.74,0.00156,-102.05,,,,,,,
252.17,0.00153,-103.14,,,,,,,
252.27,0.00151,-103.3,,,,,,,
252.83,0.00146,-104.62,,,,,,,
253.17,0.00144,-106.37,,,,,,,
253.29,0.00141,-108.09,,,,,,,
253.68,0.00136,-106.44,,,,,,,
254.17,0.00132,-103.66,,,,,,,
254.21,0.00131,-103.58,,,,,,,
254.75,0.00126,-101.6,,,,,,,
255.16,0.00121,-99.71,,,,,,,
255.17,0.00121,-99.63,,,,,,,
255.71,0.00116,-98.04,,,,,,,
256.17,0.00112,-97.8,,,,,,,
256.22,0.00111,-97.79,,,,,,,
256.79,0.00106,-100.96,,,,,,,
257.17,0.00102,-101.52,,,,,,,
257.24,0.00101,-101.49,,,,,,,
257.69,0.00096,-101.22,,,,,,,
258.17,0.00092,-101.04,,,,,,,
258.25,0.00091,-101.55,,,,,,,
258.64,0.00086,-101.73,,,,,,,
259.17,0.00082,-100.74,,,,,,,
259.22,0.00081,-100.79,,,,,,,
259.85,0.00076,-102.88,,,,,,,
260.17,0.00072,-104.51,,,,,,,
260.23,0.00071,-104.54,,,,,,,
260.73,0.00066,-106.47,,,,,,,
261.17,0.00062,-106.61,,,,,,,
261.24,0.00061,-106.78,,,,,,,
261.7,0.00056,-108.62,,,,,,,
262.06,0.00051,-106.34,,,,,,,
262.17,0.0005,-104.74,,,,,,,
262.69,0.00046,-104.82,,,,,,,
263.15,0.00041,-102.54,,,,,,,
263.17,0.00041,-102.48,,,,,,,
263.68,0.00036,-100.63,,,,,,,
264.17,0.00032,-100.13,,,,,,,
264.2,0.00031,-100.16,,,,,,,
264.72,0.00026,-104.57,,,,,,,
265.17,0.00022,-103.12,,,,,,,
265.31,0.00021,-103.82,,,,,,,
265.77,0.00016,-108.07,,,,,,,
266.16,0.00011,-109.24,,,,,,,
266.17,0.00011,-109.27,,,,,,,
266.67,6e-05,-108.92,,,,,,,
267.07,1e-05,-107.21,,,,,,,
267.17,1e-05,-106.35,,,,,,,
267.82,-4e-05,-109.21,,,,,,,
268.15,-9e-05,-111.16,,,,,,,
268.17,-0.0001,-111.14,,,,,,,
268.66,-0.00014,-110.05,,,,,,,
269.07,-0.00019,-107.88,,,,,,,
269.17,-0.0002,-106.75,,,,,,,
269.85,-0.00024,-106.12,,,,,,,
270.17,-0.00029,-108.49,,,,,,,
270.2,-0.00029,-108.58,,,,,,,
270.73,-0.00034,-108.92,,,,,,,
271.1,-0.00039,-109.48,,,,,,,
271.17,-0.00041,-108.94,,,,,,,
271.77,-0.00044,-107.17,,,,,,,
272.14,-0.00049,-106.95,,,,,,,
272.17,-0.0005,-106.8,,,,,,,
272.71,-0.00054,-105.37,,,,,,,
273.14,-0.00059,-105.4,,,,,,,
273.17,-0.0006,-105.33,,,,,,,
273.71,-0.00064,-104.95,,,,,,,
274.09,-0.00069,-106.25,,,,,,,
274.17,-0.0007,-105.65,,,,,,,
274.92,-0.00074,-106.59,,,,,,,
275.17,-0.00078,-109.77,,,,,,,
275.24,-0.00079,-110.07,,,,,,,
275.65,-0.00084,-110.75,,,,,,,
276.17,-0.00089,-110.26,,,,,,,
276.19,-0.00089,-110.25,,,,,,,
276.62,-0.00094,-108.15,,,,,,,
277.1,-0.00099,-106.15,,,,,,,
277.17,-0.001,-105.72,,,,,,,
277.63,-0.00104,-103.89,,,,,,,
278.17,-0.00108,-101.91,,,,,,,
278.22,-0.00109,-102.13,,,,,,,
278.66,-0.00114,-102.3,,,,,,,
279.16,-0.00119,-105.11,,,,,,,
279.17,-0.00119,-105.16,,,,,,,
279.61,-0.00124,-104.63,,,,,,,
280.17,-0.00129,-106.53,,,,,,,
280.22,-0.00129,-106.78,,,,,,,
280.77,-0.00134,-108.34,,,,,,,
281.17,-0.00139,-110.55,,,,,,,
281.19,-0.00139,-110.57,,,,,,,
281.58,-0.00144,-109.01,,,,,,,
282.17,-0.00149,-107.64,,,,,,,
282.19,-0.00149,-107.81,,,,,,,
282.64,-0.00154,-106.57,,,,,,,
283.17,-0.00159,-106.73,,,,,,,
283.18,-0.00159,-106.73,,,,,,,
283.63,-0.00164,-107.21,,,,,,,
284.17,-0.00169,-105.73,,,,,,,
284.27,-0.00169,-106.05,,,,,,,
284.6,-0.00174,-106.89,,,,,,,
285.09,-0.00179,-104.71,,,,,,,
285.17,-0.0018,-104.07,,,,,,,
285.61,-0.00184,-102.87,,,,,,,
286.17,-0.00189,-106.23,,,,,,,
286.17,-0.00189,-106.24,,,,,,,
286.72,-0.00194,-105.41,,,,,,,
287.17,-0.00199,-105.19,,,,,,,
287.22,-0.00199,-105.46,,,,,,,
287.63,-0.00204,-105.12,,,,,,,
288.17,-0.00209,-106.08,,,,,,,
288.23,-0.00209,-106.46,,,,,,,
288.67,-0.00214,-107.21,,,,,,,
289.17,-0.00218,-106.78,,,,,,,
289.34,-0.00219,-108.33,,,,,,,
289.64,-0.00224,-110.25,,,,,,,
290.17,-0.00229,-111.7,,,,,,,
290.27,-0.00229,-112.43,,,,,,,
290.63,-0.00234,-111.77,,,,,,,
291.17,-0.00239,-108.77,,,,,,,
291.19,-0.00239,-108.75,,,,,,,
291.67,-0.00244,-108.3,,,,,,,
292.16,-0.00249,-107.82,,,,,,,
292.17,-0.0025,-107.83,,,,,,,
292.77,-0.00254,-111.68,,,,,,,
293.17,-0.00259,-112.96,,,,,,,
293.23,-0.00259,-112.95,,,,,,,
293.65,-0.00264,-112.23,,,,,,,
294.17,-0.00268,-110.77,,,,,,,
294.28,-0.00269,-111.61,,,,,,,
294.71,-0.00274,-114.14,,,,,,,
295.17,-0.00278,-113.52,,,,,,,
295.28,-0.00279,-114.37,,,,,,,
295.62,-0.00284,-115.31,,,,,,,
296.08,-0.00289,-110.59,,,,,,,
296.17,-0.0029,-109.8,,,,,,,
296.61,-0.00294,-108.34,,,,,,,
297.17,-0.00299,-104.5,,,,,,,
297.21,-0.00299,-104.7,,,,,,,
297.68,-0.00305,-104.79,,,,,,,
298.17,-0.00309,-103.34,,,,,,,
298.24,-0.0031,-103.57,,,,,,,
298.66,-0.00315,-107.09,,,,,,,
299.17,-0.00319,-107.68,,,,,,,
299.24,-0.0032,-108.01,,,,,,,
299.77,-0.00325,-110.19,,,,,,,
300.17,-0.00329,-112.09,,,,,,,
300.19,-0.0033,-112.03,,,,,,,
300.72,-0.00335,-111.21,,,,,,,
301.17,-0.00339,-110.76,,,,,,,
301.24,-0.0034,-110.9,,,,,,,
301.63,-0.00345,-111.23,,,,,,,
302.17,-0.0035,-110.21,,,,,,,
302.17,-0.0035,-110.26,,,,,,,
302.64,-0.00355,-108.51,,,,,,,
303.17,-0.00359,-108.42,,,,,,,
303.21,-0.0036,-108.57,,,,,,,
303.67,-0.00365,-108.46,,,,,,,
304.17,-0.00369,-109.1,,,,,,,
304.22,-0.0037,-109.43,,,,,,,
304.61,-0.00375,-109.43,,,,,,,
305.17,-0.00379,-108.11,,,,,,,
305.21,-0.0038,-108.17,,,,,,,
305.72,-0.00385,-107.45,,,,,,,
306.17,-0.00389,-110.23,,,,,,,
306.2,-0.0039,-110.24,,,,,,,
306.74,-0.00395,-111.68,,,,,,,
307.17,-0.00399,-111.14,,,,,,,
307.24,-0.004,-110.99,,,,,,,
307.67,-0.00405,-112.32,,,,,,,
308.17,-0.00409,-109.7,,,,,,,
308.23,-0.0041,-109.8,,,,,,,
308.65,-0.00415,-109.05,,,,,,,
309.17,-0.00419,-107.89,,,,,,,
309.22,-0.0042,-108.01,,,,,,,
309.74,-0.00425,-110.6,,,,,,,
310.17,-0.00428,-110.55,,,,,,,
310.28,-0.0043,-111.57,,,,,,,
310.68,-0.00435,-112.31,,,,,,,
311.17,-0.00439,-111.44,,,,,,,
311.2,-0.0044,-111.49,,,,,,,
311.69,-0.00445,-110.21,,,,,,,
312.17,-0.00448,-111.67,,,,,,,
312.29,-0.0045,-112.66,,,,,,,
312.8,-0.00455,-115.39,,,,,,,
313.17,-0.00459,-117.03,,,,,,,
313.23,-0.0046,-116.86,,,,,,,
314.04,-0.00455,-96.85,,,,,,,
314.17,-0.00455,-94.2,,,,,,,
314.66,-0.0045,-81.22,,,,,,,
315.05,-0.00445,-75.63,,,,,,,
315.17,-0.00444,-74.58,,,,,,,
315.6,-0.0044,-71.01,,,,,,,
316.15,-0.00435,-64.66,,,,,,,
316.17,-0.00435,-64.41,,,,,,,
316.65,-0.0043,-59.94,,,,,,,
317.16,-0.00425,-55.75,,,,,,,
317.17,-0.00425,-55.59,,,,,,,
317.71,-0.0042,-48.45,,,,,,,
318.17,-0.00415,-44.69,,,,,,,
318.19,-0.00415,-44.53,,,,,,,
318.61,-0.0041,-41.35,,,,,,,
319.17,-0.00405,-35.44,,,,,,,
319.22,-0.00405,-34.91,,,,,,,
319.71,-0.004,-31.14,,,,,,,
320.17,-0.00397,-26.41,,,,,,,
320.34,-0.00395,-21.83,,,,,,,
320.73,-0.0039,-15.82,,,,,,,
321.17,-0.00386,-12.57,,,,,,,
321.27,-0.00385,-11.41,,,,,,,
321.81,-0.0038,-3.94,,,,,,,
322.17,-0.00376,-0.68,,,,,,,
322.23,-0.00375,0.09,,,,,,,
322.67,-0.0037,0.01,,,,,,,
323.17,-0.00366,4.48,,,,,,,
323.32,-0.00365,6.73,,,,,,,
323.78,-0.0036,12.35,,,,,,,
324.17,-0.00357,14.81,,,,,,,
324.55,-0.00355,15.31,,,,,,,
324.86,-0.0035,19.62,,,,,,,
325.17,-0.00348,21.48,,,,,,,
325.56,-0.00345,27.26,,,,,,,
326.16,-0.0034,33.45,,,,,,,
326.17,-0.00339,33.65,,,,,,,
326.54,-0.00335,42.44,,,,,,,
326.76,-0.0033,47.7,,,,,,,
327.17,-0.00326,51.48,,,,,,,
327.31,-0.00325,53.51,,,,,,,
327.79,-0.0032,60.71,,,,,,,
328.17,-0.00315,63.3,,,,,,,
328.24,-0.00315,63.71,,,,,,,
328.71,-0.00309,66.69,,,,,,,
329.17,-0.00305,68.71,,,,,,,
329.2,-0.00304,68.76,,,,,,,
329.79,-0.00299,73.4,,,,,,,
330.17,-0.00295,75.3,,,,,,,
330.25,-0.00294,76.08,,,,,,,
330.8,-0.00289,82.19,,,,,,,
331.17,-0.00285,84.33,,,,,,,
331.26,-0.00284,84.88,,,,,,,
331.82,-0.00279,90.43,,,,,,,
332.17,-0.00274,91.34,,,,,,,
332.17,-0.00274,91.31,,,,,,,
332.65,-0.00269,91.78,,,,,,,
333.17,-0.00265,92.12,,,,,,,
333.21,-0.00264,92.24,,,,,,,
333.7,-0.00259,91.54,,,,,,,
334.15,-0.00254,92.39,,,,,,,
334.17,-0.00254,92.38,,,,,,,
334.66,-0.00249,92.88,,,,,,,
335.12,-0.00244,93.71,,,,,,,
335.17,-0.00244,93.71,,,,,,,
335.67,-0.00239,93.73,,,,,,,
336.12,-0.00234,97.33,,,,,,,
336.17,-0.00233,97.55,,,,,,,
336.67,-0.00229,99.22,,,,,,,
337.17,-0.00225,103.32,,,,,,,
337.23,-0.00224,103.87,,,,,,,
337.58,-0.00219,104.7,,,,,,,
338.15,-0.00214,105.05,,,,,,,
338.17,-0.00213,105.24,,,,,,,
338.54,-0.00209,104.43,,,,,,,
338.98,-0.00204,102.03,,,,,,,
339.17,-0.00202,100.02,,,,,,,
339.62,-0.00199,98.13,,,,,,,
339.98,-0.00194,101.02,,,,,,,
340.17,-0.00193,100.21,,,,,,,
340.51,-0.00189,99.82,,,,,,,
341.08,-0.00184,101.09,,,,,,,
341.17,-0.00184,101.58,,,,,,,
341.53,-0.00179,102.9,,,,,,,
342.04,-0.00174,102.87,,,,,,,
342.17,-0.00173,103.29,,,,,,,
342.45,-0.00169,104.06,,,,,,,
342.96,-0.00164,101.54,,,,,,,
343.17,-0.00162,100.38,,,,,,,
343.48,-0.00159,99.53,,,,,,,
343.94,-0.00154,97.65,,,,,,,
344.17,-0.00152,97.26,,,,,,,
344.52,-0.00149,97.59,,,,,,,
344.85,-0.00144,97.07,,,,,,,
345.17,-0.00142,95.14,,,,,,,
345.53,-0.00139,95.48,,,,,,,
345.99,-0.00134,99.37,,,,,,,
346.17,-0.00131,99.28,,,,,,,
346.49,-0.00129,98.99,,,,,,,
346.87,-0.00124,98.08,,,,,,,
347.17,-0.00122,96.06,,,,,,,
347.54,-0.00119,100.05,,,,,,,
348.06,-0.00114,102.55,,,,,,,
348.17,-0.00113,103.56,,,,,,,
348.57,-0.00109,107.09,,,,,,,
348.96,-0.00104,107.65,,,,,,,
349.17,-0.00102,106.63,,,,,,,
349.4,-0.00099,105.96,,,,,,,
349.94,-0.00094,107.12,,,,,,,
350.17,-0.00091,106.03,,,,,,,
350.49,-0.00089,105.54,,,,,,,
350.91,-0.00084,105.4,,,,,,,
351.17,-0.00082,104.44,,,,,,,
351.46,-0.00079,104.11,,,,,,,
351.96,-0.00074,104.81,,,,,,,
352.17,-0.00072,104.78,,,,,,,
352.37,-0.00069,104.29,,,,,,,
352.85,-0.00064,102.01,,,,,,,
353.17,-0.00061,100.12,,,,,,,
353.35,-0.00059,99.81,,,,,,,
353.88,-0.00054,98.42,,,,,,,
354.17,-0.00051,97.18,,,,,,,
354.34,-0.00049,97.12,,,,,,,
354.82,-0.00044,95.85,,,,,,,
355.17,-0.0004,93.95,,,,,,,
355.29,-0.00039,93.24,,,,,,,
355.93,-0.00034,94.91,,,,,,,
356.17,-0.00031,95.94,,,,,,,
356.52,-0.00029,97.44,,,,,,,
357.02,-0.00024,102.29,,,,,,,
357.17,-0.00021,103.25,,,,,,,
357.49,-0.00019,104.77,,,,,,,
357.95,-0.00014,106.91,,,,,,,
358.17,-0.00012,107.7,,,,,,,
358.42,-9e-05,108.3,,,,,,,
359.01,-4e-05,107.64,,,,,,,
359.17,-1e-05,108.28,,,,,,,
747.36,1e-05,99.83,,,,,,,
747.98,6e-05,102.11,,,,,,,
748.17,8e-05,103.19,,,,,,,
748.36,0.00011,104.33,,,,,,,
748.88,0.00016,101.64,,,,,,,
749.17,0.00018,99.99,,,,,,,
749.52,0.00021,102.89,,,,,,,
749.92,0.00026,103.57,,,,,,,
750.17,0.00029,103.09,,,,,,,
750.45,0.00031,103.76,,,,,,,
751.0,0.00036,104.46,,,,,,,
751.17,0.00039,105.37,,,,,,,
751.52,0.00041,107.37,,,,,,,
751.99,0.00046,106.61,,,,,,,
752.17,0.00049,106.85,,,,,,,
752.43,0.00051,106.23,,,,,,,
752.97,0.00056,107.0,,,,,,,
753.17,0.00059,107.47,,,,,,,
753.4,0.00061,106.79,,,,,,,
753.93,0.00066,105.72,,,,,,,
754.17,0.0007,105.25,,,,,,,
754.42,0.00071,104.36,,,,,,,
754.89,0.00076,104.23,,,,,,,
755.17,0.00079,103.6,,,,,,,
755.4,0.00081,102.45,,,,,,,
755.85,0.00086,101.8,,,,,,,
756.17,0.0009,99.7,,,,,,,
756.36,0.00091,98.57,,,,,,,
756.9,0.00096,98.17,,,,,,,
757.17,0.00099,98.36,,,,,,,
757.45,0.00101,98.66,,,,,,,
757.97,0.00106,100.86,,,,,,,
758.17,0.00109,101.13,,,,,,,
758.42,0.00111,101.07,,,,,,,
758.98,0.00116,100.79,,,,,,,
759.17,0.00118,102.25,,,,,,,
759.44,0.00121,103.77,,,,,,,
759.83,0.00126,104.47,,,,,,,
760.17,0.00129,101.98,,,,,,,
760.47,0.00131,102.32,,,,,,,
760.95,0.00136,104.39,,,,,,,
761.17,0.00139,104.08,,,,,,,
761.42,0.00141,103.13,,,,,,,
761.97,0.00146,101.54,,,,,,,
762.17,0.00149,102.45,,,,,,,
762.39,0.00151,102.69,,,,,,,
762.94,0.00156,100.56,,,,,,,
763.17,0.00158,100.78,,,,,,,
763.4,0.00161,102.09,,,,,,,
763.94,0.00166,103.43,,,,,,,
764.17,0.00169,103.6,,,,,,,
764.38,0.00171,103.25,,,,,,,
764.95,0.00176,103.12,,,,,,,
765.17,0.00179,103.93,,,,,,,
765.47,0.00181,104.1,,,,,,,
766.06,0.00186,107.39,,,,,,,
766.17,0.00189,108.37,,,,,,,
766.4,0.00191,108.2,,,,,,,
766.96,0.00196,108.26,,,,,,,
767.17,0.00199,108.59,,,,,,,
767.5,0.00201,108.01,,,,,,,
767.93,0.00206,108.34,,,,,,,
768.17,0.00208,108.59,,,,,,,
768.37,0.00211,108.74,,,,,,,
769.01,0.00216,108.8,,,,,,,
769.17,0.00219,109.56,,,,,,,
769.5,0.00221,109.16,,,,,,,
769.92,0.00226,109.59,,,,,,,
770.17,0.00229,108.99,,,,,,,
770.47,0.00231,109.82,,,,,,,
770.93,0.00236,108.61,,,,,,,
771.17,0.00239,108.26,,,,,,,
771.43,0.00241,108.38,,,,,,,
771.93,0.00246,105.41,,,,,,,
772.17,0.00249,105.25,,,,,,,
772.43,0.00252,105.5,,,,,,,
772.88,0.00257,105.13,,,,,,,
773.17,0.00258,104.19,,,,,,,
773.46,0.00262,104.88,,,,,,,
773.96,0.00267,105.13,,,,,,,
774.17,0.00269,105.45,,,,,,,
774.45,0.00272,105.52,,,,,,,
774.87,0.00277,104.87,,,,,,,
775.17,0.0028,102.48,,,,,,,
775.42,0.00282,101.99,,,,,,,
775.94,0.00287,101.31,,,,,,,
776.17,0.00288,101.56,,,,,,,
776.48,0.00292,103.58,,,,,,,
776.95,0.00297,104.02,,,,,,,
777.17,0.00299,104.2,,,,,,,
777.46,0.00302,105.61,,,,,,,
777.72,0.00307,104.45,,,,,,,
778.17,0.0031,98.2,,,,,,,
778.31,0.00312,97.19,,,,,,,
778.88,0.00317,93.7,,,,,,,
779.17,0.00319,94.27,,,,,,,
779.46,0.00322,96.58,,,,,,,
779.88,0.00327,97.59,,,,,,,
780.17,0.00329,97.05,,,,,,,
780.46,0.00332,98.3,,,,,,,
781.06,0.00337,106.45,,,,,,,
781.17,0.00338,107.82,,,,,,,
781.52,0.00342,109.59,,,,,,,
782.03,0.00347,112.67,,,,,,,
782.17,0.00348,113.25,,,,,,,
782.42,0.00352,112.87,,,,,,,
782.97,0.00357,111.2,,,,,,,
783.17,0.00359,110.81,,,,,,,
783.44,0.00362,109.76,,,,,,,
784.02,0.00367,113.04,,,,,,,
784.17,0.00368,113.75,,,,,,,
784.51,0.00372,114.27,,,,,,,
784.82,0.00377,113.06,,,,,,,
785.17,0.00379,109.49,,,,,,,
785.44,0.00382,108.39,,,,,,,
785.92,0.00387,108.66,,,,,,,
786.17,0.00389,107.74,,,,,,,
786.5,0.00392,108.83,,,,,,,
787.04,0.00397,109.87,,,,,,,
787.17,0.00399,110.39,,,,,,,
787.32,0.00402,109.77,,,,,,,
787.92,0.00407,106.87,,,,,,,
788.17,0.00409,106.27,,,,,,,
788.33,0.00412,105.75,,,,,,,
788.88,0.00417,103.88,,,,,,,
789.17,0.00419,102.82,,,,,,,
789.47,0.00422,104.72,,,,,,,
789.89,0.00427,105.94,,,,,,,
790.17,0.00432,103.95,,,,,,,
790.17,0.00432,103.81,,,,,,,
790.97,0.00437,105.22,,,,,,,
791.17,0.00439,105.75,,,,,,,
791.34,0.00442,105.21,,,,,,,
791.93,0.00447,104.99,,,,,,,
792.17,0.0045,104.39,,,,,,,
792.44,0.00452,103.76,,,,,,,
792.93,0.00457,103.1,,,,,,,
793.17,0.00459,103.5,,,,,,,
793.41,0.00462,104.11,,,,,,,
793.97,0.00467,100.66,,,,,,,
794.17,0.00468,101.51,,,,,,,
794.49,0.00472,103.76,,,,,,,
794.81,0.00477,102.7,,,,,,,
795.17,0.00481,97.58,,,,,,,
795.41,0.00482,95.81,,,,,,,
795.9,0.00487,94.17,,,,,,,
796.17,0.00488,94.73,,,,,,,
796.59,0.00492,99.71,,,,,,,
797.02,0.00497,103.03,,,,,,,
797.17,0.00499,103.82,,,,,,,
797.41,0.00502,103.74,,,,,,,
797.92,0.00497,85.36,,,,,,,
798.17,0.00493,82.27,,,,,,,
798.24,0.00492,82.09,,,,,,,
798.82,0.00487,77.89,,,,,,,
799.17,0.00484,75.51,,,,,,,
799.43,0.00482,70.24,,,,,,,
800.07,0.00477,57.13,,,,,,,
800.17,0.00475,54.95,,,,,,,
800.59,0.00472,47.98,,,,,,,
800.97,0.00467,41.3,,,,,,,
801.17,0.00465,39.48,,,,,,,
801.43,0.00462,38.33,,,,,,,
801.7,0.00457,38.85,,,,,,,
802.17,0.00454,39.74,,,,,,,
802.41,0.00452,38.9,,,,,,,
803.07,0.00447,33.67,,,,,,,
803.17,0.00446,31.78,,,,,,,
803.49,0.00442,26.39,,,,,,,
804.08,0.00437,23.2,,,,,,,
804.17,0.00436,21.84,,,,,,,
804.46,0.00432,18.44,,,,,,,
805.06,0.00427,11.79,,,,,,,
805.17,0.00425,10.45,,,,,,,
805.51,0.00422,7.75,,,,,,,
806.09,0.00417,4.76,,,,,,,
806.17,0.00416,3.88,,,,,,,
806.97,0.00412,-2.17,,,,,,,
807.17,0.0041,-3.84,,,,,,,
807.37,0.00407,-6.92,,,,,,,
807.92,0.00402,-11.54,,,,,,,
808.17,0.00398,-14.18,,,,,,,
808.36,0.00397,-14.94,,,,,,,
808.67,0.00392,-18.65,,,,,,,
809.07,0.00387,-24.45,,,,,,,
809.17,0.00386,-26.02,,,,,,,
809.51,0.00382,-30.73,,,,,,,
809.93,0.00377,-35.13,,,,,,,
810.17,0.00375,-35.45,,,,,,,
810.53,0.00372,-37.4,,,,,,,
811.07,0.00367,-42.31,,,,,,,
811.17,0.00365,-43.57,,,,,,,
811.54,0.00362,-46.32,,,,,,,
812.02,0.00357,-49.44,,,,,,,
812.17,0.00355,-50.35,,,,,,,
812.63,0.00352,-55.0,,,,,,,
813.0,0.00347,-61.63,,,,,,,
813.17,0.00345,-61.82,,,,,,,
813.51,0.00342,-63.66,,,,,,,
814.02,0.00337,-65.52,,,,,,,
814.17,0.00336,-66.39,,,,,,,
814.54,0.00331,-68.87,,,,,,,
815.08,0.00326,-73.68,,,,,,,
815.17,0.00325,-74.37,,,,,,,
815.57,0.00321,-76.28,,,,,,,
816.17,0.00317,-81.8,,,,,,,
816.26,0.00316,-83.45,,,,,,,
816.61,0.00311,-87.66,,,,,,,
817.0,0.00306,-88.65,,,,,,,
817.17,0.00305,-88.51,,,,,,,
817.59,0.00301,-90.69,,,,,,,
818.12,0.00296,-95.04,,,,,,,
818.17,0.00296,-95.51,,,,,,,
818.44,0.00291,-95.6,,,,,,,
818.94,0.00286,-93.08,,,,,,,
819.17,0.00284,-92.13,,,,,,,
819.54,0.00281,-93.76,,,,,,,
819.98,0.00276,-98.5,,,,,,,
820.17,0.00274,-97.6,,,,,,,
820.55,0.00271,-96.91,,,,,,,
820.97,0.00266,-98.37,,,,,,,
821.17,0.00264,-98.0,,,,,,,
821.51,0.00261,-98.04,,,,,,,
822.0,0.00256,-102.09,,,,,,,
822.17,0.00254,-102.49,,,,,,,
822.36,0.00251,-101.61,,,,,,,
822.93,0.00246,-101.6,,,,,,,
823.17,0.00245,-101.61,,,,,,,
823.46,0.00241,-102.21,,,,,,,
824.02,0.00236,-105.19,,,,,,,
824.17,0.00234,-105.95,,,,,,,
824.38,0.00231,-106.0,,,,,,,
824.84,0.00226,-103.21,,,,,,,
825.17,0.00222,-101.16,,,,,,,
825.29,0.00221,-100.22,,,,,,,
825.8,0.00216,-98.93,,,,,,,
826.17,0.00213,-98.23,,,,,,,
826.34,0.00211,-98.49,,,,,,,
826.91,0.00206,-99.61,,,,,,,
827.17,0.00203,-99.61,,,,,,,
827.28,0.00201,-99.42,,,,,,,
827.87,0.00196,-97.54,,,,,,,
828.17,0.00194,-98.64,,,,,,,
828.39,0.00191,-100.99,,,,,,,
828.85,0.00186,-101.74,,,,,,,
829.17,0.00183,-101.75,,,,,,,
829.38,0.00181,-102.18,,,,,,,
829.84,0.00176,-104.85,,,,,,,
830.17,0.00172,-103.04,,,,,,,
830.29,0.00171,-102.39,,,,,,,
830.93,0.00166,-101.3,,,,,,,
831.17,0.00163,-102.83,,,,,,,
831.41,0.00161,-103.88,,,,,,,
831.7,0.00156,-103.46,,,,,,,
832.17,0.00153,-100.77,,,,,,,
832.3,0.00151,-100.79,,,,,,,
832.91,0.00146,-101.29,,,,,,,
833.17,0.00143,-103.81,,,,,,,
833.32,0.00141,-104.76,,,,,,,
833.72,0.00136,-104.19,,,,,,,
834.17,0.00131,-102.48,,,,,,,
834.21,0.00131,-102.33,,,,,,,
834.8,0.00126,-101.31,,,,,,,
835.17,0.00123,-102.82,,,,,,,
835.3,0.00121,-103.2,,,,,,,
835.75,0.00116,-102.42,,,,,,,
836.17,0.00112,-102.43,,,,,,,
836.28,0.00111,-102.52,,,,,,,
836.8,0.00106,-102.6,,,,,,,
837.17,0.00102,-102.72,,,,,,,
837.26,0.00101,-102.64,,,,,,,
837.97,0.00096,-106.28,,,,,,,
838.17,0.00093,-109.07,,,,,,,
838.33,0.00091,-110.89,,,,,,,
838.71,0.00086,-109.3,,,,,,,
839.17,0.00081,-103.88,,,,,,,
839.2,0.00081,-103.67,,,,,,,
839.66,0.00076,-102.77,,,,,,,
840.17,0.00071,-100.19,,,,,,,
840.19,0.00071,-100.14,,,,,,,
840.83,0.00066,-99.55,,,,,,,
841.17,0.00062,-100.92,,,,,,,
841.27,0.00061,-101.26,,,,,,,
841.76,0.00056,-102.1,,,,,,,
842.17,0.00052,-102.33,,,,,,,
842.21,0.00051,-102.21,,,,,,,
842.72,0.00046,-101.13,,,,,,,
843.17,0.00042,-102.83,,,,,,,
843.23,0.00041,-103.07,,,,,,,
843.82,0.00036,-105.14,,,,,,,
844.17,0.00031,-105.05,,,,,,,
844.26,0.00031,-104.77,,,,,,,
844.76,0.00026,-103.65,,,,,,,
845.17,0.00022,-104.25,,,,,,,
845.25,0.00021,-104.32,,,,,,,
845.7,0.00016,-104.62,,,,,,,
846.17,0.00012,-104.82,,,,,,,
846.2,0.00011,-104.92,,,,,,,
846.69,6e-05,-104.32,,,,,,,
847.17,2e-05,-103.15,,,,,,,
847.23,1e-05,-103.07,,,,,,,
847.75,-4e-05,-105.29,,,,,,,
848.17,-8e-05,-104.96,,,,,,,
848.3,-9e-05,-105.57,,,,,,,
848.77,-0.00014,-106.91,,,,,,,
849.17,-0.00018,-107.88,,,,,,,
849.29,-0.00019,-108.31,,,,,,,
849.78,-0.00024,-110.08,,,,,,,
850.17,-0.00029,-109.45,,,,,,,
850.24,-0.00029,-109.1,,,,,,,
850.65,-0.00034,-109.41,,,,,,,
851.17,-0.00038,-105.41,,,,,,,
851.26,-0.00039,-105.89,,,,,,,
851.68,-0.00044,-107.35,,,,,,,
852.17,-0.00048,-107.11,,,,,,,
852.21,-0.00049,-107.36,,,,,,,
852.78,-0.00054,-113.39,,,,,,,
853.17,-0.00059,-112.59,,,,,,,
853.18,-0.00059,-112.6,,,,,,,
853.81,-0.00064,-112.97,,,,,,,
854.17,-0.00068,-114.72,,,,,,,
854.25,-0.00069,-114.64,,,,,,,
854.73,-0.00074,-113.85,,,,,,,
855.17,-0.00079,-111.72,,,,,,,
855.2,-0.00079,-111.6,,,,,,,
855.69,-0.00084,-110.07,,,,,,,
856.12,-0.00089,-107.36,,,,,,,
856.17,-0.0009,-107.02,,,,,,,
856.67,-0.00094,-103.1,,,,,,,
857.17,-0.00099,-102.47,,,,,,,
857.2,-0.00099,-102.46,,,,,,,
857.76,-0.00104,-104.31,,,,,,,
858.17,-0.00109,-105.87,,,,,,,
858.18,-0.00109,-105.85,,,,,,,
858.66,-0.00114,-104.71,,,,,,,
859.11,-0.00119,-103.42,,,,,,,
859.17,-0.00119,-103.05,,,,,,,
859.81,-0.00124,-103.69,,,,,,,
860.17,-0.00129,-104.99,,,,,,,
860.18,-0.00129,-104.96,,,,,,,
860.7,-0.00134,-106.92,,,,,,,
861.17,-0.00138,-105.55,,,,,,,
861.26,-0.00139,-105.67,,,,,,,
861.87,-0.00144,-108.52,,,,,,,
862.15,-0.00149,-110.14,,,,,,,
862.17,-0.0015,-109.99,,,,,,,
862.78,-0.00154,-110.59,,,,,,,
863.17,-0.00159,-110.59,,,,,,,
863.24,-0.00159,-110.44,,,,,,,
863.84,-0.00164,-113.38,,,,,,,
864.17,-0.00168,-115.22,,,,,,,
864.29,-0.00169,-115.76,,,,,,,
864.77,-0.00174,-114.8,,,,,,,
865.17,-0.00179,-114.85,,,,,,,
865.26,-0.00179,-114.68,,,,,,,
865.73,-0.00184,-113.13,,,,,,,
866.17,-0.00189,-111.54,,,,,,,
866.31,-0.00189,-111.66,,,,,,,
866.7,-0.00194,-113.77,,,,,,,
867.17,-0.00199,-112.12,,,,,,,
867.24,-0.00199,-112.23,,,,,,,
867.62,-0.00204,-111.08,,,,,,,
868.17,-0.00209,-107.72,,,,,,,
868.17,-0.00209,-107.7,,,,,,,
868.64,-0.00214,-105.37,,,,,,,
869.17,-0.00219,-102.62,,,,,,,
869.21,-0.00219,-102.62,,,,,,,
869.61,-0.00224,-101.87,,,,,,,
870.17,-0.00227,-103.24,,,,,,,
870.37,-0.00229,-107.1,,,,,,,
870.65,-0.00234,-107.94,,,,,,,
871.17,-0.00239,-107.3,,,,,,,
871.21,-0.00239,-107.3,,,,,,,
871.83,-0.00244,-108.69,,,,,,,
872.12,-0.00249,-108.96,,,,,,,
872.17,-0.0025,-108.59,,,,,,,
872.71,-0.00254,-107.64,,,,,,,
873.17,-0.00259,-106.83,,,,,,,
873.32,-0.00259,-107.8,,,,,,,
873.74,-0.00264,-107.5,,,,,,,
874.17,-0.00267,-108.83,,,,,,,
874.41,-0.0027,-112.52,,,,,,,
874.74,-0.00275,-114.03,,,,,,,
875.17,-0.00279,-110.8,,,,,,,
875.21,-0.0028,-110.81,,,,,,,
875.7,-0.00285,-107.81,,,,,,,
876.17,-0.00289,-106.84,,,,,,,
876.24,-0.0029,-106.87,,,,,,,
876.67,-0.00295,-107.85,,,,,,,
877.17,-0.00299,-106.88,,,,,,,
877.19,-0.003,-106.95,,,,,,,
877.73,-0.00305,-109.24,,,,,,,
878.17,-0.0031,-107.36,,,,,,,
878.17,-0.0031,-107.34,,,,,,,
878.75,-0.00315,-112.16,,,,,,,
879.17,-0.00319,-111.63,,,,,,,
879.24,-0.0032,-111.63,,,,,,,
879.78,-0.00325,-110.57,,,,,,,
880.13,-0.0033,-108.66,,,,,,,
880.17,-0.0033,-108.32,,,,,,,
880.65,-0.00335,-107.28,,,,,,,
881.17,-0.00339,-105.87,,,,,,,
881.24,-0.0034,-106.0,,,,,,,
881.72,-0.00345,-106.52,,,,,,,
882.1,-0.0035,-106.74,,,,,,,
882.17,-0.0035,-106.07,,,,,,,
882.77,-0.00355,-107.53,,,,,,,
883.17,-0.00358,-108.54,,,,,,,
883.24,-0.0036,-108.89,,,,,,,
883.75,-0.00365,-107.83,,,,,,,
884.17,-0.00369,-109.58,,,,,,,
884.24,-0.0037,-109.57,,,,,,,
884.73,-0.00375,-111.29,,,,,,,
885.17,-0.00379,-111.44,,,,,,,
885.25,-0.0038,-111.28,,,,,,,
885.69,-0.00385,-109.5,,,,,,,
886.17,-0.00389,-114.08,,,,,,,
886.37,-0.0039,-114.41,,,,,,,
886.69,-0.00395,-115.09,,,,,,,
887.17,-0.00397,-116.48,,,,,,,
887.3,-0.004,-117.8,,,,,,,
887.83,-0.00405,-121.02,,,,,,,
888.17,-0.00408,-122.8,,,,,,,
888.26,-0.0041,-122.89,,,,,,,
888.71,-0.00415,-118.11,,,,,,,
889.17,-0.00419,-114.15,,,,,,,
889.26,-0.0042,-113.93,,,,,,,
889.61,-0.00425,-112.79,,,,,,,
890.17,-0.00429,-108.67,,,,,,,
890.25,-0.0043,-108.79,,,,,,,
890.76,-0.00435,-107.82,,,,,,,
891.17,-0.00439,-107.84,,,,,,,
891.25,-0.0044,-108.05,,,,,,,
891.72,-0.00445,-108.85,,,,,,,
892.17,-0.00449,-108.18,,,,,,,
892.21,-0.0045,-108.16,,,,,,,
892.76,-0.00455,-107.86,,,,,,,
893.17,-0.00459,-107.44,,,,,,,
893.3,-0.0046,-107.88,,,,,,,
893.74,-0.00465,-108.36,,,,,,,
894.17,-0.00469,-106.82,,,,,,,
894.27,-0.0047,-107.02,,,,,,,
894.71,-0.00475,-106.83,,,,,,,
895.17,-0.00477,-107.17,,,,,,,
895.31,-0.0048,-109.06,,,,,,,
895.8,-0.00485,-111.43,,,,,,,
896.17,-0.00489,-111.72,,,,,,,
896.25,-0.0049,-111.45,,,,,,,
896.88,-0.00495,-111.18,,,,,,,
897.17,-0.00499,-113.36,,,,,,,
897.23,-0.005,-113.37,,,,,,,
898.13,-0.00495,-94.65,,,,,,,
898.17,-0.00494,-93.72,,,,,,,
898.71,-0.0049,-82.29,,,,,,,
899.11,-0.00485,-75.41,,,,,,,
899.17,-0.00484,-74.67,,,,,,,
899.69,-0.0048,-67.77,,,,,,,
900.1,-0.00475,-63.53,,,,,,,
900.17,-0.00474,-63.06,,,,,,,
900.66,-0.0047,-59.65,,,,,,,
901.17,-0.00465,-54.16,,,,,,,
901.26,-0.00465,-52.84,,,,,,,
901.83,-0.0046,-41.6,,,,,,,
902.17,-0.00456,-35.63,,,,,,,
902.28,-0.00455,-33.86,,,,,,,
902.77,-0.0045,-28.66,,,,,,,
903.17,-0.00445,-24.3,,,,,,,
903.2,-0.00445,-24.2,,,,,,,
903.82,-0.0044,-19.27,,,,,,,
904.17,-0.00437,-15.04,,,,,,,
904.32,-0.00435,-12.19,,,,,,,
904.7,-0.0043,-10.14,,,,,,,
905.07,-0.00425,-9.65,,,,,,,
905.17,-0.00424,-10.14,,,,,,,
905.8,-0.0042,-7.85,,,,,,,
906.17,-0.00416,-2.92,,,,,,,
906.34,-0.00415,-0.11,,,,,,,
906.8,-0.0041,4.04,,,,,,,
907.17,-0.00406,7.3,,,,,,,
907.32,-0.00405,9.09,,,,,,,
907.95,-0.004,14.56,,,,,,,
908.17,-0.00401,15.07,,,,,,,
908.55,-0.00395,24.24,,,,,,,
909.14,-0.0039,28.32,,,,,,,
909.17,-0.00389,28.57,,,,,,,
909.58,-0.00385,32.8,,,,,,,
910.0,-0.0038,38.45,,,,,,,
910.17,-0.00375,41.6,,,,,,,
910.17,-0.00374,41.63,,,,,,,
910.84,-0.0037,49.45,,,,,,,
911.17,-0.00366,52.94,,,,,,,
911.26,-0.00365,54.0,,,,,,,
911.86,-0.0036,60.0,,,,,,,
912.17,-0.00356,64.02,,,,,,,
912.27,-0.00355,65.11,,,,,,,
912.79,-0.0035,67.67,,,,,,,
913.17,-0.00346,71.12,,,,,,,
913.33,-0.00345,72.72,,,,,,,
913.84,-0.0034,76.54,,,,,,,
914.17,-0.00336,78.95,,,,,,,
914.3,-0.00335,79.55,,,,,,,
914.73,-0.0033,80.74,,,,,,,
915.17,-0.00326,82.68,,,,,,,
915.35,-0.00325,84.28,,,,,,,
915.69,-0.0032,87.2,,,,,,,
916.17,-0.00316,89.54,,,,,,,
916.31,-0.00314,90.76,,,,,,,
916.67,-0.00309,92.47,,,,,,,
917.1,-0.00304,90.74,,,,,,,
917.17,-0.00304,90.24,,,,,,,
917.66,-0.00299,88.88,,,,,,,
918.17,-0.00294,87.65,,,,,,,
918.17,-0.00294,87.62,,,,,,,
918.71,-0.00289,89.9,,,,,,,
919.17,-0.00285,91.83,,,,,,,
919.24,-0.00284,91.96,,,,,,,
919.75,-0.00279,95.83,,,,,,,
920.16,-0.00274,99.16,,,,,,,
920.17,-0.00274,99.21,,,,,,,
920.77,-0.00269,103.62,,,,,,,
921.17,-0.00265,105.53,,,,,,,
921.23,-0.00264,106.01,,,,,,,
921.73,-0.00259,107.2,,,,,,,
922.13,-0.00254,107.97,,,,,,,
922.17,-0.00254,107.8,,,,,,,
922.62,-0.00249,105.96,,,,,,,
923.07,-0.00244,103.81,,,,,,,
923.17,-0.00243,103.35,,,,,,,
923.56,-0.00239,101.94,,,,,,,
924.05,-0.00234,99.28,,,,,,,
924.17,-0.00234,99.02,,,,,,,
924.56,-0.00229,99.53,,,,,,,
925.14,-0.00224,102.77,,,,,,,
925.17,-0.00224,103.05,,,,,,,
925.63,-0.00219,104.53,,,,,,,
926.04,-0.00214,106.47,,,,,,,
926.17,-0.00213,106.04,,,,,,,
926.55,-0.00209,106.0,,,,,,,
927.06,-0.00204,104.62,,,,,,,
927.17,-0.00203,104.79,,,,,,,
927.53,-0.00199,104.88,,,,,,,
927.99,-0.00194,102.82,,,,,,,
928.17,-0.00192,102.12,,,,,,,
928.61,-0.00189,102.0,,,,,,,
929.12,-0.00184,105.7,,,,,,,
929.17,-0.00183,106.11,,,,,,,
929.55,-0.00179,105.51,,,,,,,
930.02,-0.00174,105.46,,,,,,,
930.17,-0.00172,105.1,,,,,,,
930.45,-0.00169,103.87,,,,,,,
930.96,-0.00164,101.62,,,,,,,
931.17,-0.00163,101.27,,,,,,,
931.49,-0.00159,102.57,,,,,,,
932.03,-0.00154,103.62,,,,,,,
932.17,-0.00153,104.0,,,,,,,
932.43,-0.00149,103.99,,,,,,,
933.0,-0.00144,102.36,,,,,,,
933.17,-0.00142,102.59,,,,,,,
933.47,-0.00139,102.53,,,,,,,
934.01,-0.00134,104.88,,,,,,,
934.17,-0.00132,105.0,,,,,,,
934.45,-0.00129,104.48,,,,,,,
934.99,-0.00124,104.43,,,,,,,
935.17,-0.00122,104.44,,,,,,,
935.49,-0.00119,102.75,,,,,,,
935.95,-0.00114,101.12,,,,,,,
936.17,-0.00112,100.25,,,,,,,
936.47,-0.00109,100.78,,,,,,,
936.98,-0.00104,101.65,,,,,,,
937.17,-0.00101,101.81,,,,,,,
937.27,-0.00099,101.24,,,,,,,
937.92,-0.00094,99.99,,,,,,,
938.17,-0.00092,99.5,,,,,,,
938.38,-0.00089,100.25,,,,,,,
939.08,-0.00084,98.75,,,,,,,
939.17,-0.00083,100.17,,,,,,,
939.43,-0.00079,102.08,,,,,,,
939.93,-0.00074,102.28,,,,,,,
940.17,-0.00071,101.3,,,,,,,
940.48,-0.00069,100.29,,,,,,,
940.99,-0.00064,102.75,,,,,,,
941.17,-0.00062,103.78,,,,,,,
941.44,-0.00059,104.38,,,,,,,
941.9,-0.00054,104.18,,,,,,,
942.17,-0.00052,103.19,,,,,,,
942.48,-0.00049,104.66,,,,,,,
942.95,-0.00044,104.63,,,,,,,
943.17,-0.00042,104.36,,,,,,,
943.42,-0.00039,104.08,,,,,,,
943.88,-0.00034,102.71,,,,,,,
944.17,-0.00031,100.98,,,,,,,
944.49,-0.00029,101.32,,,,,,,
945.04,-0.00024,100.93,,,,,,,
945.17,-0.00022,102.36,,,,,,,
945.46,-0.00019,103.92,,,,,,,
945.92,-0.00014,106.01,,,,,,,
946.17,-0.00012,105.49,,,,,,,
946.43,-9e-05,105.87,,,,,,,
947.0,-4e-05,105.9,,,,,,,
947.17,-1e-05,106.19,,,,,,,
947.27,1e-05,105.64,,,,,,,
1747.54,1e-05,102.33,,,,,,,
1747.9,6e-05,103.23,,,,,,,
1748.17,8e-05,102.39,,,,,,,
1748.56,0.00011,103.33,,,,,,,
1748.9,0.00016,104.7,,,,,,,
1749.17,0.00018,103.71,,,,,,,
1749.48,0.00021,103.12,,,,,,,
1750.0,0.00026,103.72,,,,,,,
1750.17,0.00028,103.96,,,,,,,
1750.35,0.00031,103.09,,,,,,,
1751.03,0.00036,99.52,,,,,,,
1751.17,0.00038,100.22,,,,,,,
1751.5,0.00041,101.4,,,,,,,
1751.96,0.00046,103.82,,,,,,,
1752.17,0.00048,103.89,,,,,,,
1752.45,0.00051,103.27,,,,,,,
1752.98,0.00056,104.33,,,,,,,
1753.17,0.00058,105.0,,,,,,,
1753.42,0.00061,105.02,,,,,,,
1753.92,0.00066,102.52,,,,,,,
1754.17,0.00069,101.01,,,,,,,
1754.35,0.00071,100.48,,,,,,,
1754.92,0.00076,99.65,,,,,,,
1755.17,0.00078,99.99,,,,,,,
1755.5,0.00081,101.72,,,,,,,
1755.99,0.00086,103.38,,,,,,,
1756.17,0.00088,103.89,,,,,,,
1756.39,0.00091,103.53,,,,,,,
1756.93,0.00096,101.3,,,,,,,
1757.17,0.00098,100.73,,,,,,,
1757.52,0.00101,101.64,,,,,,,
1758.07,0.00106,102.67,,,,,,,
1758.17,0.00107,103.77,,,,,,,
1758.47,0.00111,106.81,,,,,,,
1758.92,0.00116,103.42,,,,,,,
1759.17,0.00119,102.25,,,,,,,
1759.5,0.00121,102.33,,,,,,,
1760.12,0.00126,104.01,,,,,,,
1760.17,0.00127,104.92,,,,,,,
1760.41,0.00131,106.76,,,,,,,
1760.94,0.00136,103.3,,,,,,,
1761.17,0.00138,103.37,,,,,,,
1761.5,0.00141,105.03,,,,,,,
1761.92,0.00146,105.46,,,,,,,
1762.17,0.00147,105.46,,,,,,,
1762.47,0.00151,106.88,,,,,,,
1762.98,0.00156,107.32,,,,,,,
1763.17,0.00158,107.04,,,,,,,
1763.49,0.00161,105.64,,,,,,,
1763.91,0.00166,106.63,,,,,,,
1764.17,0.00168,105.59,,,,,,,
1764.5,0.00171,105.37,,,,,,,
1764.95,0.00176,105.14,,,,,,,
1765.17,0.00179,104.29,,,,,,,
1765.45,0.00181,102.96,,,,,,,
1766.02,0.00186,102.03,,,,,,,
1766.17,0.00188,102.46,,,,,,,
1766.58,0.00191,103.63,,,,,,,
1767.01,0.00196,105.23,,,,,,,
1767.17,0.00198,105.52,,,,,,,
1767.49,0.00201,105.56,,,,,,,
1767.99,0.00206,105.87,,,,,,,
1768.17,0.00209,105.98,,,,,,,
1768.5,0.00211,105.56,,,,,,,
1768.96,0.00216,107.49,,,,,,,
1769.17,0.00218,107.28,,,,,,,
1769.46,0.00221,107.14,,,,,,,
1769.99,0.00226,106.49,,,,,,,
1770.17,0.00229,106.33,,,,,,,
1770.42,0.00231,105.26,,,,,,,
1771.04,0.00236,104.48,,,,,,,
1771.17,0.00238,105.24,,,,,,,
1771.48,0.00241,106.82,,,,,,,
1772.07,0.00246,105.69,,,,,,,
1772.17,0.00248,106.45,,,,,,,
1772.53,0.00251,107.41,,,,,,,
1772.96,0.00256,107.6,,,,,,,
1773.17,0.00259,106.47,,,,,,,
1773.49,0.00261,105.15,,,,,,,
1773.98,0.00266,105.69,,,,,,,
1774.17,0.00268,105.17,,,,,,,
1774.49,0.00271,105.53,,,,,,,
1774.94,0.00276,104.69,,,,,,,
1775.17,0.00279,103.79,,,,,,,
1775.46,0.00281,102.8,,,,,,,
1776.04,0.00286,104.45,,,,,,,
1776.17,0.00288,104.9,,,,,,,
1776.53,0.00292,106.15,,,,,,,
1777.03,0.00297,107.05,,,,,,,
1777.17,0.00298,107.32,,,,,,,
1777.48,0.00302,106.95,,,,,,,
1777.94,0.00307,105.4,,,,,,,
1778.17,0.00309,103.67,,,,,,,
1778.49,0.00312,103.07,,,,,,,
1779.06,0.00317,102.76,,,,,,,
1779.17,0.00318,103.4,,,,,,,
1779.54,0.00322,105.01,,,,,,,
1780.0,0.00327,104.67,,,,,,,
1780.17,0.0033,104.2,,,,,,,
1780.59,0.00332,103.75,,,,,,,
1780.88,0.00337,104.89,,,,,,,
1781.17,0.00339,102.93,,,,,,,
1781.45,0.00342,102.8,,,,,,,
1782.11,0.00347,103.6,,,,,,,
1782.17,0.00348,104.5,,,,,,,
1782.55,0.00352,105.85,,,,,,,
1782.99,0.00357,107.17,,,,,,,
1783.17,0.00359,106.59,,,,,,,
1783.58,0.00362,106.35,,,,,,,
1783.94,0.00367,106.41,,,,,,,
1784.17,0.00369,104.9,,,,,,,
1784.37,0.00372,102.97,,,,,,,
1784.96,0.00377,100.28,,,,,,,
1785.17,0.00379,99.85,,,,,,,
1785.58,0.00382,100.01,,,,,,,
1786.07,0.00387,103.6,,,,,,,
1786.17,0.00387,104.43,,,,,,,
1786.56,0.00392,108.24,,,,,,,
1787.0,0.00397,108.0,,,,,,,
1787.17,0.00399,107.35,,,,,,,
1787.45,0.00402,106.44,,,,,,,
1787.96,0.00407,106.37,,,,,,,
1788.17,0.00408,105.68,,,,,,,
1788.6,0.00412,107.83,,,,,,,
1789.03,0.00417,110.23,,,,,,,
1789.17,0.00418,110.1,,,,,,,
1789.51,0.00422,111.19,,,,,,,
1789.92,0.00427,105.58,,,,,,,
1790.17,0.0043,104.01,,,,,,,
1790.41,0.00432,102.04,,,,,,,
1791.11,0.00437,102.65,,,,,,,
1791.17,0.00438,103.39,,,,,,,
1791.63,0.00442,103.97,,,,,,,
1792.09,0.00447,106.6,,,,,,,
1792.17,0.00448,107.16,,,,,,,
1792.54,0.00452,107.91,,,,,,,
1793.12,0.00457,108.46,,,,,,,
1793.17,0.00458,108.86,,,,,,,
1793.59,0.00462,109.52,,,,,,,
1794.09,0.00467,111.49,,,,,,,
1794.17,0.00468,111.73,,,,,,,
1794.4,0.00472,111.68,,,,,,,
1794.99,0.00477,108.72,,,,,,,
1795.17,0.00479,107.71,,,,,,,
1795.39,0.00482,105.84,,,,,,,
1795.93,0.00487,103.38,,,,,,,
1796.17,0.0049,101.08,,,,,,,
1796.52,0.00492,99.42,,,,,,,
1797.08,0.00497,101.14,,,,,,,
1797.17,0.00498,101.93,,,,,,,
1798.17,0.00495,90.55,,,,,,,
1798.39,0.00492,84.27,,,,,,,
1798.94,0.00487,73.13,,,,,,,
1799.17,0.00485,70.32,,,,,,,
1799.51,0.00482,64.1,,,,,,,
1799.95,0.00477,57.67,,,,,,,
1800.17,0.00474,56.89,,,,,,,
1800.42,0.00472,55.95,,,,,,,
1800.92,0.00467,51.66,,,,,,,
1801.17,0.00465,49.74,,,,,,,
1801.45,0.00462,47.09,,,,,,,
1802.08,0.00457,40.52,,,,,,,
1802.17,0.00455,39.17,,,,,,,
1802.55,0.00452,34.58,,,,,,,
1803.04,0.00447,31.28,,,,,,,
1803.17,0.00446,29.82,,,,,,,
1803.56,0.00442,24.6,,,,,,,
1804.11,0.00437,16.28,,,,,,,
1804.17,0.00436,15.48,,,,,,,
1804.57,0.00432,12.42,,,,,,,
1805.11,0.00427,7.68,,,,,,,
1805.17,0.00426,7.02,,,,,,,
1805.71,0.00422,2.09,,,,,,,
1806.17,0.00419,0.63,,,,,,,
1806.68,0.00417,-8.71,,,,,,,
1807.12,0.00412,-17.72,,,,,,,
1807.17,0.00412,-18.19,,,,,,,
1807.59,0.00407,-23.03,,,,,,,
1807.78,0.00402,-29.05,,,,,,,
1808.04,0.00397,-32.66,,,,,,,
1808.17,0.00395,-32.96,,,,,,,
1808.46,0.00392,-33.24,,,,,,,
1809.03,0.00387,-34.46,,,,,,,
1809.17,0.00385,-35.11,,,,,,,
1809.68,0.00382,-38.49,,,,,,,
1810.17,0.00377,-45.9,,,,,,,
1810.24,0.00377,-47.28,,,,,,,
1810.63,0.00372,-52.19,,,,,,,
1811.16,0.00367,-56.81,,,,,,,
1811.17,0.00366,-56.94,,,,,,,
1811.63,0.00362,-59.94,,,,,,,
1812.07,0.00357,-61.11,,,,,,,
1812.17,0.00356,-61.55,,,,,,,
1812.5,0.00352,-61.74,,,,,,,
1813.15,0.00347,-66.16,,,,,,,
1813.17,0.00346,-66.47,,,,,,,
1813.66,0.00342,-71.68,,,,,,,
1814.09,0.00337,-75.21,,,,,,,
1814.17,0.00336,-75.52,,,,,,,
1814.6,0.00332,-77.22,,,,,,,
1815.05,0.00327,-77.55,,,,,,,
1815.17,0.00326,-77.71,,,,,,,
1815.6,0.00322,-81.77,,,,,,,
1816.14,0.00317,-83.79,,,,,,,
1816.17,0.00316,-84.14,,,,,,,
1816.74,0.00312,-92.03,,,,,,,
1817.12,0.00307,-97.71,,,,,,,
1817.17,0.00306,-97.97,,,,,,,
1817.5,0.00302,-96.64,,,,,,,
1817.95,0.00297,-93.29,,,,,,,
1818.17,0.00294,-90.86,,,,,,,
1818.61,0.00292,-94.87,,,,,,,
1819.1,0.00287,-94.24,,,,,,,
1819.17,0.00285,-94.55,,,,,,,
1819.52,0.00281,-95.95,,,,,,,
1820.11,0.00276,-97.24,,,,,,,
1820.17,0.00276,-97.77,,,,,,,
1820.61,0.00271,-101.53,,,,,,,
1821.02,0.00266,-102.46,,,,,,,
1821.17,0.00265,-102.45,,,,,,,
1821.46,0.00261,-101.8,,,,,,,
1821.97,0.00256,-101.57,,,,,,,
1822.17,0.00254,-101.02,,,,,,,
1822.57,0.00251,-102.04,,,,,,,
1822.96,0.00246,-103.02,,,,,,,
1823.17,0.00244,-102.2,,,,,,,
1823.48,0.00241,-100.86,,,,,,,
1824.0,0.00236,-102.54,,,,,,,
1824.17,0.00234,-103.11,,,,,,,
1824.49,0.00231,-103.18,,,,,,,
1824.95,0.00226,-102.85,,,,,,,
1825.17,0.00224,-102.66,,,,,,,
1825.5,0.00221,-103.46,,,,,,,
1825.99,0.00216,-104.74,,,,,,,
1826.17,0.00214,-105.8,,,,,,,
1826.41,0.00211,-105.69,,,,,,,
1826.96,0.00206,-106.27,,,,,,,
1827.17,0.00204,-106.73,,,,,,,
1827.58,0.00201,-109.34,,,,,,,
1827.94,0.00196,-112.82,,,,,,,
1828.17,0.00193,-111.75,,,,,,,
1828.29,0.00191,-110.65,,,,,,,
1828.88,0.00186,-108.69,,,,,,,
1829.17,0.00183,-107.61,,,,,,,
1829.33,0.00181,-106.91,,,,,,,
1829.88,0.00176,-106.69,,,,,,,
1830.17,0.00172,-105.68,,,,,,,
1830.29,0.00171,-104.76,,,,,,,
1830.63,0.00166,-101.03,,,,,,,
1831.17,0.00163,-97.32,,,,,,,
1831.38,0.00161,-97.68,,,,,,,
1831.81,0.00156,-97.34,,,,,,,
1832.17,0.00152,-97.66,,,,,,,
1832.23,0.00151,-97.39,,,,,,,
1832.86,0.00146,-99.68,,,,,,,
1833.17,0.00143,-101.8,,,,,,,
1833.28,0.00141,-102.27,,,,,,,
1833.88,0.00136,-102.66,,,,,,,
1834.17,0.00132,-103.78,,,,,,,
1834.36,0.00131,-103.51,,,,,,,
1834.81,0.00126,-106.88,,,,,,,
1835.17,0.00123,-106.27,,,,,,,
1835.26,0.00121,-106.48,,,,,,,
1835.84,0.00116,-103.86,,,,,,,
1836.17,0.00112,-102.97,,,,,,,
1836.22,0.00111,-102.68,,,,,,,
1836.86,0.00106,-100.97,,,,,,,
1837.17,0.00102,-102.15,,,,,,,
1837.33,0.00101,-101.84,,,,,,,
1837.77,0.00096,-102.97,,,,,,,
1838.17,0.00093,-104.31,,,,,,,
1838.3,0.00091,-104.93,,,,,,,
1838.74,0.00086,-102.61,,,,,,,
1839.17,0.00082,-103.18,,,,,,,
1839.24,0.00081,-103.09,,,,,,,
1839.84,0.00076,-100.62,,,,,,,
1840.17,0.00072,-100.56,,,,,,,
1840.25,0.00071,-100.47,,,,,,,
1840.82,0.00066,-100.38,,,,,,,
1841.17,0.00062,-101.64,,,,,,,
1841.26,0.00061,-101.54,,,,,,,
1841.69,0.00056,-100.54,,,,,,,
1842.17,0.00053,-98.21,,,,,,,
1842.29,0.00051,-98.69,,,,,,,
1842.82,0.00046,-101.97,,,,,,,
1843.17,0.00042,-102.63,,,,,,,
1843.3,0.00041,-102.73,,,,,,,
1843.69,0.00036,-103.42,,,,,,,
1844.17,0.00033,-103.29,,,,,,,
1844.35,0.00031,-104.54,,,,,,,
1844.83,0.00026,-110.31,,,,,,,
1845.17,0.00022,-109.94,,,,,,,
1845.26,0.00021,-109.47,,,,,,,
1845.87,0.00016,-109.91,,,,,,,
1846.17,0.00012,-110.33,,,,,,,
1846.22,0.00011,-109.97,,,,,,,
1846.81,6e-05,-109.34,,,,,,,
1847.1,1e-05,-107.09,,,,,,,
1847.17,1e-05,-105.83,,,,,,,
1847.75,-4e-05,-102.1,,,,,,,
1848.17,-8e-05,-102.0,,,,,,,
1848.28,-9e-05,-102.5,,,,,,,
1848.81,-0.00014,-104.38,,,,,,,
1849.17,-0.00017,-104.39,,,,,,,
1849.31,-0.00019,-105.43,,,,,,,
1849.76,-0.00024,-104.93,,,,,,,
1850.17,-0.00028,-103.55,,,,,,,
1850.22,-0.00029,-103.39,,,,,,,
1850.8,-0.00034,-105.36,,,,,,,
1851.17,-0.00039,-103.95,,,,,,,
1851.2,-0.00039,-103.83,,,,,,,
1851.91,-0.00044,-103.05,,,,,,,
1852.17,-0.00048,-104.61,,,,,,,
1852.27,-0.00049,-104.58,,,,,,,
1852.76,-0.00054,-104.5,,,,,,,
1853.17,-0.00058,-103.79,,,,,,,
1853.35,-0.00059,-104.65,,,,,,,
1853.81,-0.00064,-105.85,,,,,,,
1854.17,-0.00068,-108.53,,,,,,,
1854.22,-0.00069,-108.53,,,,,,,
1854.85,-0.00074,-111.03,,,,,,,
1855.17,-0.00078,-110.24,,,,,,,
1855.26,-0.00079,-109.77,,,,,,,
1855.71,-0.00084,-106.18,,,,,,,
1856.17,-0.00089,-104.08,,,,,,,
1856.21,-0.00089,-104.03,,,,,,,
1856.78,-0.00094,-102.07,,,,,,,
1857.17,-0.00099,-102.66,,,,,,,
1857.21,-0.00099,-102.57,,,,,,,
1857.86,-0.00104,-103.85,,,,,,,
1858.17,-0.00108,-105.61,,,,,,,
1858.34,-0.00109,-106.3,,,,,,,
1858.86,-0.00114,-110.1,,,,,,,
1859.17,-0.00116,-111.43,,,,,,,
1859.35,-0.00119,-113.66,,,,,,,
1859.84,-0.00124,-114.72,,,,,,,
1860.12,-0.00129,-113.71,,,,,,,
1860.17,-0.00129,-112.95,,,,,,,
1860.79,-0.00134,-109.85,,,,,,,
1861.17,-0.00138,-108.11,,,,,,,
1861.36,-0.00139,-109.1,,,,,,,
1861.76,-0.00144,-112.05,,,,,,,
1862.17,-0.00149,-110.3,,,,,,,
1862.22,-0.00149,-110.03,,,,,,,
1862.74,-0.00154,-107.14,,,,,,,
1863.17,-0.00158,-106.03,,,,,,,
1863.31,-0.00159,-105.86,,,,,,,
1863.79,-0.00164,-106.46,,,,,,,
1864.17,-0.00169,-104.9,,,,,,,
1864.31,-0.00169,-104.39,,,,,,,
1864.84,-0.00174,-108.15,,,,,,,
1865.17,-0.00178,-108.66,,,,,,,
1865.22,-0.00179,-108.44,,,,,,,
1865.88,-0.00184,-106.87,,,,,,,
1866.16,-0.00189,-108.2,,,,,,,
1866.17,-0.0019,-108.06,,,,,,,
1866.86,-0.00194,-109.06,,,,,,,
1867.17,-0.00199,-111.73,,,,,,,
1867.18,-0.00199,-111.71,,,,,,,
1867.85,-0.00204,-109.48,,,,,,,
1868.17,-0.00208,-109.17,,,,,,,
1868.28,-0.00209,-109.01,,,,,,,
1868.65,-0.00214,-107.36,,,,,,,
1869.17,-0.00218,-104.84,,,,,,,
1869.25,-0.00219,-105.08,,,,,,,
1869.77,-0.00224,-109.07,,,,,,,
1870.17,-0.00228,-106.97,,,,,,,
1870.32,-0.00229,-106.88,,,,,,,
1870.81,-0.00234,-107.11,,,,,,,
1871.17,-0.00237,-108.86,,,,,,,
1871.4,-0.00239,-110.71,,,,,,,
1871.76,-0.00244,-112.05,,,,,,,
1872.17,-0.00249,-110.22,,,,,,,
1872.21,-0.00249,-110.02,,,,,,,
1872.84,-0.00254,-107.77,,,,,,,
1873.17,-0.00258,-107.96,,,,,,,
1873.4,-0.00259,-109.19,,,,,,,
1873.83,-0.00264,-111.57,,,,,,,
1874.17,-0.00269,-110.95,,,,,,,
1874.19,-0.00269,-110.87,,,,,,,
1874.76,-0.00274,-107.28,,,,,,,
1875.17,-0.00278,-105.16,,,,,,,
1875.31,-0.00279,-105.01,,,,,,,
1875.83,-0.00285,-105.4,,,,,,,
1876.17,-0.00288,-105.59,,,,,,,
1876.29,-0.0029,-105.44,,,,,,,
1876.87,-0.00295,-107.15,,,,,,,
1877.17,-0.00297,-109.34,,,,,,,
1877.35,-0.003,-110.8,,,,,,,
1877.8,-0.00305,-110.7,,,,,,,
1878.17,-0.00307,-111.2,,,,,,,
1878.39,-0.0031,-112.79,,,,,,,
1878.81,-0.00315,-113.49,,,,,,,
1879.17,-0.00317,-115.0,,,,,,,
1879.36,-0.0032,-115.57,,,,,,,
1879.89,-0.00325,-115.64,,,,,,,
1880.17,-0.00327,-116.45,,,,,,,
1880.45,-0.0033,-119.19,,,,,,,
1880.74,-0.00335,-119.9,,,,,,,
1881.17,-0.00338,-116.0,,,,,,,
1881.33,-0.0034,-116.2,,,,,,,
1881.66,-0.00345,-114.54,,,,,,,
1882.17,-0.00348,-108.31,,,,,,,
1882.4,-0.0035,-109.27,,,,,,,
1882.71,-0.00355,-110.9,,,,,,,
1883.17,-0.00359,-107.44,,,,,,,
1883.27,-0.0036,-107.19,,,,,,,
1883.64,-0.00365,-105.48,,,,,,,
1884.17,-0.00368,-103.82,,,,,,,
1884.3,-0.0037,-104.6,,,,,,,
1884.83,-0.00375,-106.16,,,,,,,
1885.17,-0.00379,-105.25,,,,,,,
1885.26,-0.0038,-104.76,,,,,,,
1885.77,-0.00385,-105.96,,,,,,,
1886.17,-0.00387,-106.0,,,,,,,
1886.41,-0.0039,-109.29,,,,,,,
1886.87,-0.00395,-113.84,,,,,,,
1887.17,-0.00398,-113.95,,,,,,,
1887.33,-0.004,-114.36,,,,,,,
1887.76,-0.00405,-113.43,,,,,,,
1888.17,-0.00408,-110.81,,,,,,,
1888.33,-0.0041,-111.14,,,,,,,
1888.82,-0.00415,-112.23,,,,,,,
1889.1,-0.0042,-110.07,,,,,,,
1889.17,-0.0042,-108.68,,,,,,,
1889.88,-0.00425,-110.39,,,,,,,
1890.17,-0.00429,-111.74,,,,,,,
1890.34,-0.0043,-111.54,,,,,,,
1890.73,-0.00435,-110.1,,,,,,,
1891.17,-0.00439,-107.66,,,,,,,
1891.26,-0.0044,-107.24,,,,,,,
1891.85,-0.00445,-108.67,,,,,,,
1892.17,-0.00448,-109.66,,,,,,,
1892.42,-0.0045,-109.91,,,,,,,
1892.88,-0.00455,-111.88,,,,,,,
1893.17,-0.00458,-112.42,,,,,,,
1893.29,-0.0046,-112.6,,,,,,,
1893.83,-0.00465,-112.47,,,,,,,
1894.17,-0.00468,-111.37,,,,,,,
1894.31,-0.0047,-111.56,,,,,,,
1894.91,-0.00475,-109.81,,,,,,,
1895.17,-0.00479,-109.48,,,,,,,
1895.34,-0.0048,-109.24,,,,,,,
1895.82,-0.00485,-108.15,,,,,,,
1896.17,-0.00488,-108.85,,,,,,,
1896.28,-0.0049,-108.89,,,,,,,
1896.81,-0.00495,-107.82,,,,,,,
1897.17,-0.00497,-110.02,,,,,,,
1898.17,-0.00495,-101.6,,,,,,,
1898.69,-0.0049,-88.69,,,,,,,
1899.14,-0.00485,-81.23,,,,,,,
1899.17,-0.00485,-80.93,,,,,,,
1899.73,-0.0048,-72.3,,,,,,,
1900.17,-0.00477,-63.34,,,,,,,
1900.37,-0.00475,-58.68,,,,,,,
1900.74,-0.0047,-53.42,,,,,,,
1901.17,-0.00466,-48.33,,,,,,,
1901.25,-0.00465,-47.56,,,,,,,
1901.74,-0.0046,-44.61,,,,,,,
1902.17,-0.00456,-41.18,,,,,,,
1902.34,-0.00455,-38.65,,,,,,,
1902.92,-0.0045,-30.29,,,,,,,
1903.17,-0.00447,-26.0,,,,,,,
1903.39,-0.00445,-21.42,,,,,,,
1903.65,-0.0044,-19.82,,,,,,,
1904.17,-0.00437,-19.9,,,,,,,
1904.33,-0.00435,-17.98,,,,,,,
1904.84,-0.0043,-9.15,,,,,,,
1905.17,-0.00428,-5.81,,,,,,,
1905.38,-0.00425,-1.97,,,,,,,
1905.85,-0.0042,3.2,,,,,,,
1906.17,-0.00417,5.31,,,,,,,
1906.49,-0.00415,10.41,,,,,,,
1907.0,-0.0041,14.55,,,,,,,
1907.17,-0.00409,13.31,,,,,,,
1907.59,-0.00405,15.85,,,,,,,
1908.0,-0.004,21.6,,,,,,,
1908.17,-0.004,22.52,,,,,,,
1908.69,-0.00395,30.85,,,,,,,
1909.17,-0.0039,35.2,,,,,,,
1909.21,-0.0039,35.56,,,,,,,
1909.4,-0.00385,39.9,,,,,,,
1909.78,-0.0038,45.21,,,,,,,
1910.17,-0.00376,48.17,,,,,,,
1910.27,-0.00375,48.58,,,,,,,
1910.85,-0.0037,53.12,,,,,,,
1911.17,-0.00366,55.7,,,,,,,
1911.29,-0.00365,56.42,,,,,,,
1911.95,-0.0036,62.5,,,,,,,
1912.17,-0.00356,65.45,,,,,,,
1912.35,-0.00355,67.29,,,,,,,
1912.92,-0.0035,70.05,,,,,,,
1913.17,-0.00345,72.09,,,,,,,
1913.41,-0.00345,73.33,,,,,,,
1913.94,-0.0034,81.19,,,,,,,
1914.17,-0.00335,82.69,,,,,,,
1914.43,-0.00335,83.22,,,,,,,
1914.79,-0.0033,86.88,,,,,,,
1915.17,-0.00325,86.89,,,,,,,
1915.35,-0.00325,86.66,,,,,,,
1915.77,-0.0032,89.72,,,,,,,
1916.15,-0.00315,90.13,,,,,,,
1916.17,-0.00314,89.98,,,,,,,
1916.81,-0.0031,91.25,,,,,,,
1917.17,-0.00306,96.25,,,,,,,
1917.29,-0.00305,96.9,,,,,,,
1917.77,-0.003,98.12,,,,,,,
1918.17,-0.00295,98.04,,,,,,,
1918.26,-0.00295,98.25,,,,,,,
1918.7,-0.00289,98.94,,,,,,,
1919.17,-0.00285,100.53,,,,,,,
1919.2,-0.00284,100.61,,,,,,,
1919.74,-0.00279,102.0,,,,,,,
1920.17,-0.00275,103.74,,,,,,,
1920.3,-0.00274,104.26,,,,,,,
1920.71,-0.00269,104.15,,,,,,,
1921.17,-0.00265,103.14,,,,,,,
1921.25,-0.00264,103.29,,,,,,,
1921.53,-0.00259,103.42,,,,,,,
1922.12,-0.00254,96.54,,,,,,,
1922.17,-0.00254,96.34,,,,,,,
1922.6,-0.00249,94.75,,,,,,,
1923.17,-0.00245,93.95,,,,,,,
1923.26,-0.00244,94.52,,,,,,,
1923.66,-0.00239,97.64,,,,,,,
1924.17,-0.00234,100.06,,,,,,,
1924.18,-0.00234,100.08,,,,,,,
1924.68,-0.00229,103.0,,,,,,,
1925.08,-0.00224,103.18,,,,,,,
1925.17,-0.00224,102.76,,,,,,,
1925.62,-0.00219,101.76,,,,,,,
1926.08,-0.00214,103.29,,,,,,,
1926.17,-0.00214,103.21,,,,,,,
1926.54,-0.00209,103.24,,,,,,,
1927.03,-0.00204,101.39,,,,,,,
1927.17,-0.00204,101.06,,,,,,,
1927.67,-0.00199,104.97,,,,,,,
1927.99,-0.00194,105.93,,,,,,,
1928.17,-0.00193,104.75,,,,,,,
1928.51,-0.00189,103.53,,,,,,,
1929.17,-0.00184,98.64,,,,,,,
1929.17,-0.00184,98.71,,,,,,,
1929.5,-0.00179,99.89,,,,,,,
1930.01,-0.00174,98.06,,,,,,,
1930.17,-0.00173,97.86,,,,,,,
1930.54,-0.00169,98.52,,,,,,,
1931.0,-0.00164,97.12,,,,,,,
1931.17,-0.00164,97.19,,,,,,,
1931.56,-0.00159,101.32,,,,,,,
1932.07,-0.00154,100.08,,,,,,,
1932.17,-0.00153,100.33,,,,,,,
1932.57,-0.00149,100.43,,,,,,,
1933.13,-0.00144,103.59,,,,,,,
1933.17,-0.00143,104.09,,,,,,,
1933.55,-0.00139,105.15,,,,,,,
1933.95,-0.00134,104.16,,,,,,,
1934.17,-0.00132,102.36,,,,,,,
1934.59,-0.00129,101.77,,,,,,,
1935.01,-0.00124,103.57,,,,,,,
1935.17,-0.00124,103.67,,,,,,,
1935.6,-0.00119,106.3,,,,,,,
1936.0,-0.00114,107.47,,,,,,,
1936.17,-0.00113,106.58,,,,,,,
1936.6,-0.00109,106.51,,,,,,,
1936.95,-0.00104,106.49,,,,,,,
1937.17,-0.00102,105.08,,,,,,,
1937.38,-0.00099,103.55,,,,,,,
1937.99,-0.00094,103.16,,,,,,,
1938.17,-0.00093,103.14,,,,,,,
1938.53,-0.00089,104.36,,,,,,,
1939.07,-0.00084,102.06,,,,,,,
1939.17,-0.00082,102.64,,,,,,,
1939.46,-0.00079,102.66,,,,,,,
1939.84,-0.00074,100.34,,,,,,,
1940.17,-0.00071,95.59,,,,,,,
1940.42,-0.00069,95.09,,,,,,,
1940.96,-0.00064,94.43,,,,,,,
1941.17,-0.00063,95.36,,,,,,,
1941.44,-0.00059,97.5,,,,,,,
1942.0,-0.00054,99.83,,,,,,,
1942.17,-0.00051,99.92,,,,,,,
1942.54,-0.00049,102.01,,,,,,,
1943.08,-0.00044,103.68,,,,,,,
1943.17,-0.00042,104.29,,,,,,,
1943.39,-0.00039,103.34,,,,,,,
1944.08,-0.00034,101.92,,,,,,,
1944.17,-0.00033,102.75,,,,,,,
1944.5,-0.00029,103.6,,,,,,,
1944.98,-0.00024,103.94,,,,,,,
1945.17,-0.00022,103.26,,,,,,,
1945.49,-0.00019,104.23,,,,,,,
1945.97,-0.00014,103.97,,,,,,,
1946.17,-0.00013,103.76,,,,,,,
1946.43,-9e-05,103.96,,,,,,,
1946.99,-4e-05,104.06,,,,,,,
1947.17,-2e-05,104.15,,,,,,,
3747.71,2e-05,103.35,,,,,,,
3748.17,6e-05,102.0,,,,,,,
3748.21,7e-05,102.03,,,,,,,
3748.72,0.00012,105.07,,,,,,,
3749.17,0.00016,106.33,,,,,,,
3749.23,0.00017,106.58,,,,,,,
3749.66,0.00022,107.32,,,,,,,
3750.17,0.00026,105.53,,,,,,,
3750.19,0.00027,105.62,,,,,,,
3750.72,0.00032,105.52,,,,,,,
3751.16,0.00037,104.86,,,,,,,
3751.17,0.00037,104.81,,,,,,,
3751.65,0.00042,104.13,,,,,,,
3752.17,0.00047,104.52,,,,,,,
3752.17,0.00047,104.52,,,,,,,
3752.67,0.00052,104.49,,,,,,,
3753.17,0.00057,103.2,,,,,,,
3753.19,0.00057,103.25,,,,,,,
3753.65,0.00062,102.73,,,,,,,
3754.16,0.00067,102.06,,,,,,,
3754.17,0.00067,102.07,,,,,,,
3754.67,0.00072,103.03,,,,,,,
3755.13,0.00077,103.78,,,,,,,
3755.17,0.00077,103.71,,,,,,,
3755.58,0.00082,102.73,,,,,,,
3756.05,0.00087,101.07,,,,,,,
3756.17,0.00088,100.22,,,,,,,
3756.62,0.00092,99.45,,,,,,,
3757.16,0.00097,98.68,,,,,,,
3757.17,0.00097,98.71,,,,,,,
3757.67,0.00102,100.32,,,,,,,
3758.17,0.00107,103.0,,,,,,,
3758.23,0.00107,103.23,,,,,,,
3758.73,0.00112,106.76,,,,,,,
3759.05,0.00117,105.96,,,,,,,
3759.17,0.00118,104.77,,,,,,,
3759.55,0.00122,100.03,,,,,,,
3760.08,0.00127,96.87,,,,,,,
3760.17,0.00128,96.43,,,,,,,
3760.68,0.00132,96.5,,,,,,,
3761.17,0.00136,100.57,,,,,,,
3761.21,0.00137,100.9,,,,,,,
3761.6,0.00142,100.47,,,,,,,
3762.04,0.00147,100.06,,,,,,,
3762.17,0.00148,99.08,,,,,,,
3762.68,0.00152,100.34,,,,,,,
3763.14,0.00157,100.26,,,,,,,
3763.17,0.00157,100.28,,,,,,,
3763.71,0.00162,101.37,,,,,,,
3764.17,0.00167,102.9,,,,,,,
3764.64,0.00172,102.58,,,,,,,
3765.05,0.00177,100.56,,,,,,,
3765.17,0.00178,99.49,,,,,,,
3765.47,0.00182,97.64,,,,,,,
3766.17,0.00187,99.13,,,,,,,
3766.2,0.00187,99.25,,,,,,,
3766.64,0.00192,100.51,,,,,,,
3767.17,0.00197,104.24,,,,,,,
3767.21,0.00197,104.46,,,,,,,
3767.69,0.00202,105.27,,,,,,,
3768.17,0.00207,105.86,,,,,,,
3768.21,0.00207,106.02,,,,,,,
3768.63,0.00212,108.04,,,,,,,
3769.17,0.00216,106.34,,,,,,,
3769.25,0.00217,106.94,,,,,,,
3769.67,0.00222,107.85,,,,,,,
3770.17,0.00227,109.66,,,,,,,
3770.18,0.00227,109.65,,,,,,,
3770.64,0.00232,110.37,,,,,,,
3771.17,0.00237,107.09,,,,,,,
3771.18,0.00237,107.06,,,,,,,
3771.78,0.00242,107.74,,,,,,,
3772.13,0.00247,108.2,,,,,,,
3772.17,0.00248,107.97,,,,,,,
3772.74,0.00252,103.15,,,,,,,
3773.17,0.00256,104.76,,,,,,,
3773.24,0.00257,105.27,,,,,,,
3773.64,0.00262,106.54,,,,,,,
3774.15,0.00267,106.47,,,,,,,
3774.17,0.00268,106.44,,,,,,,
3774.67,0.00272,107.04,,,,,,,
3775.17,0.00277,106.98,,,,,,,
3775.19,0.00277,107.05,,,,,,,
3775.69,0.00282,106.25,,,,,,,
3776.16,0.00287,105.88,,,,,,,
3776.17,0.00287,105.88,,,,,,,
3776.65,0.00292,104.1,,,,,,,
3777.17,0.00297,104.01,,,,,,,
3777.2,0.00297,104.0,,,,,,,
3777.64,0.00302,104.28,,,,,,,
3778.17,0.00306,104.52,,,,,,,
3778.23,0.00307,104.95,,,,,,,
3778.69,0.00312,108.07,,,,,,,
3779.17,0.00317,107.79,,,,,,,
3779.2,0.00317,107.86,,,,,,,
3779.57,0.00322,108.19,,,,,,,
3780.13,0.00327,104.53,,,,,,,
3780.17,0.00328,104.45,,,,,,,
3780.71,0.00332,102.25,,,,,,,
3781.17,0.00337,104.48,,,,,,,
3781.17,0.00338,104.51,,,,,,,
3781.73,0.00342,106.06,,,,,,,
3782.17,0.00347,106.94,,,,,,,
3782.22,0.00347,107.13,,,,,,,
3782.77,0.00352,107.68,,,,,,,
3783.17,0.00357,107.85,,,,,,,
3783.21,0.00357,107.75,,,,,,,
3783.75,0.00362,108.45,,,,,,,
3784.17,0.00367,109.29,,,,,,,
3784.2,0.00367,109.3,,,,,,,
3784.69,0.00372,108.3,,,,,,,
3785.17,0.00377,107.78,,,,,,,
3785.2,0.00377,107.88,,,,,,,
3785.68,0.00382,107.53,,,,,,,
3786.11,0.00387,104.73,,,,,,,
3786.17,0.00388,104.28,,,,,,,
3786.62,0.00392,100.84,,,,,,,
3787.13,0.00397,96.97,,,,,,,
3787.17,0.00398,96.84,,,,,,,
3787.71,0.00402,97.65,,,,,,,
3788.14,0.00407,99.1,,,,,,,
3788.17,0.00408,99.13,,,,,,,
3788.69,0.00412,99.93,,,,,,,
3789.17,0.00417,99.24,,,,,,,
3789.2,0.00417,99.23,,,,,,,
3789.69,0.00422,101.86,,,,,,,
3790.17,0.00427,102.26,,,,,,,
3790.22,0.00427,102.32,,,,,,,
3790.75,0.00432,105.55,,,,,,,
3791.13,0.00437,105.84,,,,,,,
3791.17,0.00438,105.65,,,,,,,
3791.7,0.00442,102.94,,,,,,,
3792.17,0.00447,101.33,,,,,,,
3792.23,0.00447,101.42,,,,,,,
3792.54,0.00452,99.96,,,,,,,
3793.17,0.00457,100.28,,,,,,,
3793.34,0.00457,101.88,,,,,,,
3793.76,0.00462,105.89,,,,,,,
3794.17,0.00466,109.39,,,,,,,
3794.25,0.00468,109.84,,,,,,,
3794.62,0.00473,108.45,,,,,,,
3795.13,0.00478,105.88,,,,,,,
3795.17,0.00478,105.69,,,,,,,
3795.58,0.00483,104.01,,,,,,,
3796.17,0.00487,106.24,,,,,,,
3796.18,0.00488,106.3,,,,,,,
3796.77,0.00493,107.64,,,,,,,
3797.13,0.00498,108.42,,,,,,,
3797.17,0.00498,108.17,,,,,,,
3798.17,0.00496,92.69,,,,,,,
3798.51,0.00493,84.68,,,,,,,
3798.96,0.00488,77.11,,,,,,,
3799.17,0.00485,74.02,,,,,,,
3799.42,0.00483,71.8,,,,,,,
3800.0,0.00478,65.32,,,,,,,
3800.17,0.00476,62.83,,,,,,,
3800.53,0.00473,58.12,,,,,,,
3801.02,0.00468,53.73,,,,,,,
3801.17,0.00466,52.35,,,,,,,
3801.6,0.00463,47.56,,,,,,,
3802.04,0.00458,42.62,,,,,,,
3802.17,0.00456,41.58,,,,,,,
3802.51,0.00453,39.5,,,,,,,
3803.1,0.00448,32.92,,,,,,,
3803.17,0.00446,32.14,,,,,,,
3803.62,0.00443,27.43,,,,,,,
3804.13,0.00438,21.4,,,,,,,
3804.17,0.00437,20.96,,,,,,,
3804.69,0.00433,12.51,,,,,,,
3805.17,0.00428,4.56,,,,,,,
3805.21,0.00427,3.93,,,,,,,
3806.07,0.00422,-1.89,,,,,,,
3806.17,0.00422,-2.81,,,,,,,
3806.5,0.00417,-8.33,,,,,,,
3807.03,0.00412,-13.59,,,,,,,
3807.17,0.00411,-14.42,,,,,,,
3807.47,0.00407,-16.7,,,,,,,
3807.79,0.00402,-22.75,,,,,,,
3808.12,0.00397,-27.65,,,,,,,
3808.17,0.00397,-28.03,,,,,,,
3808.58,0.00392,-29.41,,,,,,,
3809.05,0.00387,-32.15,,,,,,,
3809.17,0.00386,-32.55,,,,,,,
3809.57,0.00382,-34.32,,,,,,,
3810.08,0.00377,-38.82,,,,,,,
3810.17,0.00376,-39.28,,,,,,,
3810.59,0.00372,-41.84,,,,,,,
3811.09,0.00367,-45.09,,,,,,,
3811.17,0.00367,-45.66,,,,,,,
3811.51,0.00362,-47.46,,,,,,,
3812.17,0.00358,-52.85,,,,,,,
3812.19,0.00357,-53.03,,,,,,,
3812.73,0.00352,-59.97,,,,,,,
3813.13,0.00347,-63.69,,,,,,,
3813.17,0.00347,-63.87,,,,,,,
3813.62,0.00342,-64.98,,,,,,,
3814.15,0.00337,-68.02,,,,,,,
3814.17,0.00337,-68.21,,,,,,,
3814.81,0.00332,-77.46,,,,,,,
3815.09,0.00327,-80.6,,,,,,,
3815.17,0.00327,-80.36,,,,,,,
3815.77,0.00322,-82.94,,,,,,,
3816.17,0.00317,-86.46,,,,,,,
3816.17,0.00317,-86.45,,,,,,,
3816.6,0.00312,-87.78,,,,,,,
3817.11,0.00307,-88.1,,,,,,,
3817.17,0.00307,-88.1,,,,,,,
3817.57,0.00302,-88.8,,,,,,,
3818.03,0.00297,-89.77,,,,,,,
3818.17,0.00297,-89.3,,,,,,,
3818.61,0.00292,-90.33,,,,,,,
3819.07,0.00287,-91.69,,,,,,,
3819.17,0.00287,-91.77,,,,,,,
3819.54,0.00282,-92.65,,,,,,,
3820.17,0.00278,-99.32,,,,,,,
3820.23,0.00277,-100.52,,,,,,,
3820.5,0.00272,-101.96,,,,,,,
3821.13,0.00267,-99.11,,,,,,,
3821.17,0.00267,-99.24,,,,,,,
3821.58,0.00262,-101.34,,,,,,,
3822.05,0.00257,-103.02,,,,,,,
3822.17,0.00257,-103.09,,,,,,,
3822.61,0.00252,-105.73,,,,,,,
3822.99,0.00247,-106.25,,,,,,,
3823.17,0.00246,-105.44,,,,,,,
3823.52,0.00242,-105.51,,,,,,,
3824.07,0.00237,-103.57,,,,,,,
3824.17,0.00236,-104.01,,,,,,,
3824.56,0.00232,-106.94,,,,,,,
3824.98,0.00227,-107.28,,,,,,,
3825.17,0.00225,-106.69,,,,,,,
3825.44,0.00222,-105.58,,,,,,,
3825.9,0.00217,-102.48,,,,,,,
3826.17,0.00215,-101.32,,,,,,,
3826.4,0.00212,-100.95,,,,,,,
3826.96,0.00207,-100.94,,,,,,,
3827.17,0.00205,-101.29,,,,,,,
3827.4,0.00202,-102.44,,,,,,,
3827.95,0.00197,-103.56,,,,,,,
3828.17,0.00196,-104.36,,,,,,,
3828.5,0.00192,-107.32,,,,,,,
3828.88,0.00187,-106.64,,,,,,,
3829.17,0.00184,-104.56,,,,,,,
3829.34,0.00182,-103.54,,,,,,,
3829.85,0.00177,-100.47,,,,,,,
3830.17,0.00174,-99.05,,,,,,,
3830.38,0.00172,-98.71,,,,,,,
3830.9,0.00167,-97.96,,,,,,,
3831.17,0.00165,-99.5,,,,,,,
3831.39,0.00162,-100.34,,,,,,,
3831.85,0.00157,-101.02,,,,,,,
3832.17,0.00154,-101.11,,,,,,,
3832.28,0.00152,-100.72,,,,,,,
3832.82,0.00147,-98.39,,,,,,,
3833.17,0.00145,-98.8,,,,,,,
3833.4,0.00142,-99.97,,,,,,,
3833.87,0.00137,-101.02,,,,,,,
3834.17,0.00133,-100.15,,,,,,,
3834.38,0.00132,-99.61,,,,,,,
3834.89,0.00127,-100.52,,,,,,,
3835.17,0.00124,-100.68,,,,,,,
3835.34,0.00122,-100.83,,,,,,,
3835.9,0.00117,-100.98,,,,,,,
3836.17,0.00114,-101.82,,,,,,,
3836.37,0.00112,-101.88,,,,,,,
3836.86,0.00107,-100.49,,,,,,,
3837.17,0.00104,-99.87,,,,,,,
3837.37,0.00102,-100.27,,,,,,,
3837.83,0.00097,-100.69,,,,,,,
3838.17,0.00094,-102.5,,,,,,,
3838.3,0.00092,-102.54,,,,,,,
3838.97,0.00087,-101.84,,,,,,,
3839.17,0.00084,-104.02,,,,,,,
3839.38,0.00082,-104.43,,,,,,,
3839.78,0.00077,-103.39,,,,,,,
3840.17,0.00073,-102.53,,,,,,,
3840.39,0.00072,-102.55,,,,,,,
3840.77,0.00067,-104.42,,,,,,,
3841.17,0.00064,-102.85,,,,,,,
3841.31,0.00062,-102.99,,,,,,,
3841.87,0.00057,-103.1,,,,,,,
3842.17,0.00054,-103.76,,,,,,,
3842.41,0.00052,-105.09,,,,,,,
3842.8,0.00047,-104.58,,,,,,,
3843.17,0.00043,-103.58,,,,,,,
3843.31,0.00042,-103.66,,,,,,,
3843.87,0.00037,-102.52,,,,,,,
3844.17,0.00033,-102.97,,,,,,,
3844.37,0.00032,-103.46,,,,,,,
3845.01,0.00027,-104.49,,,,,,,
3845.17,0.00024,-106.96,,,,,,,
3845.33,0.00022,-108.19,,,,,,,
3845.85,0.00017,-105.62,,,,,,,
3846.17,0.00013,-105.48,,,,,,,
3846.33,0.00012,-105.44,,,,,,,
3846.87,7e-05,-104.75,,,,,,,
3847.17,2e-05,-105.24,,,,,,,
3847.27,2e-05,-104.58,,,,,,,
3847.82,-3e-05,-102.91,,,,,,,
3848.17,-7e-05,-103.05,,,,,,,
3848.33,-8e-05,-103.22,,,,,,,
3848.81,-0.00013,-103.19,,,,,,,
3849.17,-0.00018,-102.61,,,,,,,
3849.35,-0.00018,-102.38,,,,,,,
3849.84,-0.00023,-102.28,,,,,,,
3850.17,-0.00027,-101.96,,,,,,,
3850.4,-0.00028,-102.72,,,,,,,
3850.8,-0.00033,-104.41,,,,,,,
3851.17,-0.00037,-103.71,,,,,,,
3851.33,-0.00038,-103.33,,,,,,,
3851.82,-0.00043,-102.36,,,,,,,
3852.17,-0.00047,-102.49,,,,,,,
3852.4,-0.00048,-102.95,,,,,,,
3852.91,-0.00053,-103.88,,,,,,,
3853.17,-0.00056,-105.05,,,,,,,
3853.36,-0.00058,-105.69,,,,,,,
3853.83,-0.00063,-104.83,,,,,,,
3854.17,-0.00067,-106.11,,,,,,,
3854.28,-0.00068,-105.78,,,,,,,
3854.88,-0.00073,-107.41,,,,,,,
3855.17,-0.00077,-107.15,,,,,,,
3855.26,-0.00078,-107.03,,,,,,,
3855.79,-0.00083,-106.12,,,,,,,
3856.17,-0.00086,-106.18,,,,,,,
3856.47,-0.00088,-109.84,,,,,,,
3856.83,-0.00093,-110.88,,,,,,,
3857.17,-0.00096,-111.61,,,,,,,
3857.33,-0.00098,-112.4,,,,,,,
3857.87,-0.00103,-111.68,,,,,,,
3858.17,-0.00107,-111.31,,,,,,,
3858.36,-0.00108,-110.86,,,,,,,
3858.85,-0.00113,-110.17,,,,,,,
3859.17,-0.00118,-109.08,,,,,,,
3859.27,-0.00118,-108.37,,,,,,,
3859.83,-0.00123,-108.55,,,,,,,
3860.17,-0.00126,-108.19,,,,,,,
3860.33,-0.00128,-108.98,,,,,,,
3860.79,-0.00133,-107.19,,,,,,,
3861.17,-0.00136,-105.86,,,,,,,
3861.38,-0.00138,-107.21,,,,,,,
3861.74,-0.00143,-107.05,,,,,,,
3862.17,-0.00147,-108.27,,,,,,,
3862.28,-0.00149,-108.42,,,,,,,
3862.77,-0.00154,-107.3,,,,,,,
3863.17,-0.00158,-106.85,,,,,,,
3863.22,-0.00159,-106.56,,,,,,,
3863.8,-0.00164,-105.45,,,,,,,
3864.17,-0.00167,-105.33,,,,,,,
3864.33,-0.00169,-105.67,,,,,,,
3864.73,-0.00174,-104.79,,,,,,,
3865.17,-0.00178,-101.99,,,,,,,
3865.29,-0.00179,-101.87,,,,,,,
3865.82,-0.00184,-102.56,,,,,,,
3866.17,-0.00187,-102.81,,,,,,,
3866.48,-0.00189,-105.19,,,,,,,
3866.74,-0.00194,-106.85,,,,,,,
3867.17,-0.00198,-104.94,,,,,,,
3867.44,-0.00199,-105.12,,,,,,,
3867.75,-0.00204,-106.84,,,,,,,
3868.17,-0.00207,-104.7,,,,,,,
3868.34,-0.00209,-105.27,,,,,,,
3868.89,-0.00214,-107.62,,,,,,,
3869.17,-0.00217,-109.13,,,,,,,
3869.35,-0.00219,-109.23,,,,,,,
3869.96,-0.00224,-112.51,,,,,,,
3870.17,-0.00227,-113.72,,,,,,,
3870.4,-0.00229,-112.91,,,,,,,
3870.78,-0.00234,-111.53,,,,,,,
3871.17,-0.00238,-109.33,,,,,,,
3871.27,-0.00239,-108.59,,,,,,,
3871.91,-0.00244,-107.11,,,,,,,
3872.17,-0.00246,-108.62,,,,,,,
3872.37,-0.00249,-109.5,,,,,,,
3872.76,-0.00254,-109.0,,,,,,,
3873.17,-0.00258,-106.61,,,,,,,
3873.31,-0.00259,-106.03,,,,,,,
3873.91,-0.00264,-108.51,,,,,,,
3874.17,-0.00267,-107.86,,,,,,,
3874.29,-0.00269,-107.37,,,,,,,
3874.79,-0.00274,-104.32,,,,,,,
3875.17,-0.00278,-103.04,,,,,,,
3875.32,-0.00279,-103.03,,,,,,,
3875.94,-0.00284,-102.98,,,,,,,
3876.17,-0.00287,-104.96,,,,,,,
3876.33,-0.00289,-105.38,,,,,,,
3876.82,-0.00294,-105.98,,,,,,,
3877.17,-0.00297,-105.76,,,,,,,
3877.32,-0.00299,-105.86,,,,,,,
3877.82,-0.00304,-107.68,,,,,,,
3878.17,-0.00307,-107.49,,,,,,,
3878.41,-0.00309,-108.24,,,,,,,
3878.84,-0.00314,-105.82,,,,,,,
3879.17,-0.00316,-105.67,,,,,,,
3879.39,-0.00319,-107.04,,,,,,,
3879.88,-0.00324,-107.68,,,,,,,
3880.17,-0.00327,-107.89,,,,,,,
3880.36,-0.00329,-108.27,,,,,,,
3880.88,-0.00334,-112.86,,,,,,,
3881.17,-0.00336,-114.86,,,,,,,
3881.38,-0.00339,-115.87,,,,,,,
3881.83,-0.00344,-114.43,,,,,,,
3882.17,-0.00347,-115.21,,,,,,,
3882.33,-0.00349,-115.63,,,,,,,
3882.83,-0.00354,-112.45,,,,,,,
3883.17,-0.00357,-111.63,,,,,,,
3883.35,-0.00359,-111.81,,,,,,,
3883.8,-0.00364,-109.71,,,,,,,
3884.17,-0.00367,-107.75,,,,,,,
3884.33,-0.00369,-107.43,,,,,,,
3884.84,-0.00374,-107.83,,,,,,,
3885.17,-0.00377,-107.95,,,,,,,
3885.29,-0.00379,-108.06,,,,,,,
3885.82,-0.00384,-106.54,,,,,,,
3886.17,-0.00386,-107.04,,,,,,,
3886.42,-0.00389,-109.49,,,,,,,
3886.86,-0.00394,-109.37,,,,,,,
3887.17,-0.00397,-109.92,,,,,,,
3887.39,-0.00399,-111.01,,,,,,,
3887.97,-0.00404,-110.72,,,,,,,
3888.17,-0.00407,-111.85,,,,,,,
3888.32,-0.00409,-111.75,,,,,,,
3888.83,-0.00414,-109.94,,,,,,,
3889.17,-0.00417,-109.85,,,,,,,
3889.38,-0.00419,-111.07,,,,,,,
3889.8,-0.00424,-111.58,,,,,,,
3890.17,-0.00428,-109.06,,,,,,,
3890.32,-0.00429,-108.4,,,,,,,
3890.95,-0.00434,-110.28,,,,,,,
3891.17,-0.00438,-111.21,,,,,,,
3891.44,-0.00439,-110.67,,,,,,,
3891.8,-0.00444,-110.24,,,,,,,
3892.17,-0.00446,-109.86,,,,,,,
3892.39,-0.00449,-111.31,,,,,,,
3892.82,-0.00454,-110.05,,,,,,,
3893.17,-0.00457,-109.76,,,,,,,
3893.44,-0.00459,-110.75,,,,,,,
3893.95,-0.00464,-109.3,,,,,,,
3894.17,-0.00467,-110.64,,,,,,,
3894.3,-0.00469,-110.76,,,,,,,
3894.87,-0.00474,-110.3,,,,,,,
3895.17,-0.00478,-108.8,,,,,,,
3895.43,-0.00479,-109.72,,,,,,,
3895.73,-0.00484,-109.24,,,,,,,
3896.17,-0.00485,-108.81,,,,,,,
3896.53,-0.00489,-113.4,,,,,,,
3896.91,-0.00494,-114.35,,,,,,,
3897.17,-0.00496,-114.25,,,,,,,
3897.36,-0.00499,-114.6,,,,,,,
3898.17,-0.00496,-97.65,,,,,,,
3898.39,-0.00494,-93.01,,,,,,,
3898.84,-0.00489,-85.03,,,,,,,
3899.17,-0.00487,-78.62,,,,,,,
3899.38,-0.00484,-74.98,,,,,,,
3899.98,-0.00479,-64.87,,,,,,,
3900.17,-0.00477,-61.86,,,,,,,
3900.4,-0.00474,-59.81,,,,,,,
3900.87,-0.00469,-55.39,,,,,,,
3901.17,-0.00466,-53.39,,,,,,,
3901.51,-0.00464,-49.22,,,,,,,
3901.94,-0.00459,-41.69,,,,,,,
3902.17,-0.00458,-38.98,,,,,,,
3902.45,-0.00454,-35.03,,,,,,,
3903.13,-0.00449,-24.21,,,,,,,
3903.17,-0.00448,-23.15,,,,,,,
3903.57,-0.00444,-16.86,,,,,,,
3903.87,-0.00439,-13.93,,,,,,,
3904.17,-0.00438,-13.97,,,,,,,
3904.59,-0.00434,-6.33,,,,,,,
3905.02,-0.00429,-0.6,,,,,,,
3905.17,-0.00428,0.04,,,,,,,
3905.51,-0.00424,3.82,,,,,,,
3906.03,-0.00419,7.47,,,,,,,
3906.17,-0.00418,8.19,,,,,,,
3906.73,-0.00414,14.56,,,,,,,
3907.17,-0.00412,15.07,,,,,,,
3907.34,-0.00409,18.38,,,,,,,
3907.83,-0.00404,24.27,,,,,,,
3908.17,-0.00402,28.21,,,,,,,
3908.58,-0.00399,33.67,,,,,,,
3908.9,-0.00394,39.97,,,,,,,
3909.07,-0.00389,44.12,,,,,,,
3909.17,-0.00387,44.76,,,,,,,
3909.53,-0.00384,45.91,,,,,,,
3909.99,-0.00379,49.6,,,,,,,
3910.17,-0.00376,50.02,,,,,,,
3910.55,-0.00374,49.08,,,,,,,
3910.94,-0.00369,51.31,,,,,,,
3911.17,-0.00367,51.71,,,,,,,
3911.51,-0.00364,54.52,,,,,,,
3912.05,-0.00359,60.28,,,,,,,
3912.17,-0.00357,61.52,,,,,,,
3912.54,-0.00354,64.78,,,,,,,
3913.05,-0.00349,69.2,,,,,,,
3913.17,-0.00347,70.04,,,,,,,
3913.48,-0.00344,71.29,,,,,,,
3914.0,-0.00339,74.79,,,,,,,
3914.17,-0.00337,75.83,,,,,,,
3914.47,-0.00334,76.56,,,,,,,
3915.01,-0.00329,79.35,,,,,,,
3915.17,-0.00327,80.2,,,,,,,
3915.44,-0.00324,80.46,,,,,,,
3915.85,-0.00319,80.45,,,,,,,
3916.17,-0.00318,81.29,,,,,,,
3916.51,-0.00314,85.22,,,,,,,
3917.09,-0.00309,88.16,,,,,,,
3917.17,-0.00308,89.48,,,,,,,
3917.52,-0.00304,92.48,,,,,,,
3917.89,-0.00299,94.84,,,,,,,
3918.17,-0.00297,93.3,,,,,,,
3918.51,-0.00294,96.52,,,,,,,
3918.87,-0.00289,96.46,,,,,,,
3919.17,-0.00285,94.26,,,,,,,
3919.44,-0.00284,93.85,,,,,,,
3919.89,-0.00279,95.93,,,,,,,
3920.17,-0.00277,96.41,,,,,,,
3920.45,-0.00274,99.09,,,,,,,
3920.93,-0.00269,101.4,,,,,,,
3921.17,-0.00266,101.43,,,,,,,
3921.42,-0.00264,101.27,,,,,,,
3921.97,-0.00259,102.02,,,,,,,
3922.17,-0.00256,102.87,,,,,,,
3922.38,-0.00254,102.56,,,,,,,
3922.83,-0.00249,103.31,,,,,,,
3923.17,-0.00246,102.32,,,,,,,
3923.35,-0.00244,103.61,,,,,,,
3923.87,-0.00239,100.49,,,,,,,
3924.17,-0.00236,102.28,,,,,,,
3924.46,-0.00234,104.4,,,,,,,
3924.8,-0.00229,107.37,,,,,,,
3925.17,-0.00226,106.21,,,,,,,
3925.33,-0.00224,107.09,,,,,,,
3925.74,-0.00219,106.1,,,,,,,
3926.17,-0.00215,104.85,,,,,,,
3926.33,-0.00214,104.42,,,,,,,
3926.81,-0.00209,103.57,,,,,,,
3927.17,-0.00205,104.79,,,,,,,
3927.33,-0.00204,105.46,,,,,,,
3927.8,-0.00199,105.13,,,,,,,
3928.17,-0.00194,103.54,,,,,,,
3928.23,-0.00194,103.18,,,,,,,
3928.74,-0.00189,100.56,,,,,,,
3929.17,-0.00184,98.87,,,,,,,
3929.23,-0.00184,98.79,,,,,,,
3929.77,-0.00179,96.91,,,,,,,
3930.17,-0.00175,97.99,,,,,,,
3930.34,-0.00174,99.79,,,,,,,
3930.71,-0.00169,102.11,,,,,,,
3931.17,-0.00165,101.93,,,,,,,
3931.24,-0.00164,102.19,,,,,,,
3931.78,-0.00159,104.08,,,,,,,
3932.17,-0.00154,102.79,,,,,,,
3932.28,-0.00154,102.69,,,,,,,
3932.61,-0.00149,102.35,,,,,,,
3933.17,-0.00144,98.21,,,,,,,
3933.18,-0.00143,98.21,,,,,,,
3933.71,-0.00138,96.75,,,,,,,
3934.17,-0.00134,97.3,,,,,,,
3934.21,-0.00133,97.39,,,,,,,
3934.63,-0.00128,98.26,,,,,,,
3935.17,-0.00124,97.98,,,,,,,
3935.18,-0.00123,98.06,,,,,,,
3935.73,-0.00118,97.5,,,,,,,
3936.17,-0.00114,98.58,,,,,,,
3936.32,-0.00113,98.72,,,,,,,
3936.67,-0.00108,101.83,,,,,,,
3937.17,-0.00105,98.86,,,,,,,
3937.3,-0.00103,99.63,,,,,,,
3937.79,-0.00098,103.14,,,,,,,
3938.17,-0.00094,104.97,,,,,,,
3938.2,-0.00093,105.17,,,,,,,
3938.74,-0.00088,106.46,,,,,,,
3939.1,-0.00083,104.53,,,,,,,
3939.17,-0.00083,103.79,,,,,,,
3939.66,-0.00078,102.63,,,,,,,
3940.1,-0.00073,100.49,,,,,,,
3940.17,-0.00073,99.96,,,,,,,
3940.77,-0.00068,102.16,,,,,,,
3941.11,-0.00063,102.83,,,,,,,
3941.17,-0.00062,102.4,,,,,,,
3941.77,-0.00058,101.78,,,,,,,
3942.16,-0.00053,102.55,,,,,,,
3942.17,-0.00053,102.49,,,,,,,
3942.68,-0.00048,100.9,,,,,,,
3943.17,-0.00043,101.1,,,,,,,
3943.18,-0.00043,101.1,,,,,,,
3943.61,-0.00038,100.69,,,,,,,
3944.17,-0.00033,100.25,,,,,,,
3944.17,-0.00033,100.25,,,,,,,
3944.61,-0.00028,99.96,,,,,,,
3945.17,-0.00024,100.11,,,,,,,
3945.23,-0.00023,100.39,,,,,,,
3945.64,-0.00018,100.43,,,,,,,
3946.17,-0.00014,101.73,,,,,,,
3946.24,-0.00013,101.95,,,,,,,
3946.67,-8e-05,104.33,,,,,,,
3947.17,-3e-05,105.54,,,,,,,
3947.17,-3e-05,105.6,,,,,,,
9747.84,2e-05,101.07,,,,,,,
9748.17,5e-05,96.43,,,,,,,
9748.47,7e-05,94.51,,,,,,,
9748.9,0.00012,93.93,,,,,,,
9749.17,0.00015,92.19,,,,,,,
9749.41,0.00017,89.66,,,,,,,
9750.0,0.00022,90.21,,,,,,,
9750.17,0.00023,91.2,,,,,,,
9750.52,0.00027,93.83,,,,,,,
9750.99,0.00032,94.87,,,,,,,
9751.17,0.00033,95.23,,,,,,,
9751.52,0.00037,96.21,,,,,,,
9751.96,0.00042,98.03,,,,,,,
9752.17,0.00044,97.8,,,,,,,
9752.39,0.00047,97.46,,,,,,,
9752.95,0.00052,94.43,,,,,,,
9753.17,0.00054,94.34,,,,,,,
9753.55,0.00057,94.88,,,,,,,
9753.94,0.00062,95.47,,,,,,,
9754.17,0.00064,95.26,,,,,,,
9754.6,0.00067,97.36,,,,,,,
9755.06,0.00072,102.82,,,,,,,
9755.17,0.00073,103.52,,,,,,,
9755.58,0.00077,105.86,,,,,,,
9756.17,0.00082,107.48,,,,,,,
9756.17,0.00082,107.53,,,,,,,
9756.63,0.00087,112.01,,,,,,,
9756.99,0.00092,112.36,,,,,,,
9757.17,0.00093,111.02,,,,,,,
9757.5,0.00097,110.15,,,,,,,
9757.96,0.00102,106.99,,,,,,,
9758.17,0.00104,105.76,,,,,,,
9758.47,0.00107,104.71,,,,,,,
9759.04,0.00112,102.21,,,,,,,
9759.17,0.00114,102.32,,,,,,,
9759.48,0.00117,101.45,,,,,,,
9760.02,0.00122,100.41,,,,,,,
9760.17,0.00123,100.7,,,,,,,
9760.5,0.00127,100.84,,,,,,,
9761.02,0.00132,102.11,,,,,,,
9761.17,0.00133,102.41,,,,,,,
9761.52,0.00137,103.77,,,,,,,
9762.01,0.00142,104.49,,,,,,,
9762.17,0.00144,104.46,,,,,,,
9762.46,0.00147,103.35,,,,,,,
9763.02,0.00152,101.92,,,,,,,
9763.17,0.00153,102.02,,,,,,,
9763.44,0.00157,101.21,,,,,,,
9763.88,0.00162,100.48,,,,,,,
9764.17,0.00162,99.01,,,,,,,
9764.5,0.00167,101.79,,,,,,,
9765.08,0.00172,101.53,,,,,,,
9765.17,0.00174,101.98,,,,,,,
9765.51,0.00177,101.39,,,,,,,
9765.94,0.00182,102.01,,,,,,,
9766.17,0.00184,101.15,,,,,,,
9766.44,0.00187,100.38,,,,,,,
9766.97,0.00192,100.36,,,,,,,
9767.17,0.00193,100.13,,,,,,,
9767.45,0.00197,100.42,,,,,,,
9768.07,0.00202,101.86,,,,,,,
9768.17,0.00204,102.3,,,,,,,
9768.63,0.00207,102.86,,,,,,,
9769.07,0.00212,105.3,,,,,,,
9769.17,0.00213,105.58,,,,,,,
9769.47,0.00217,107.38,,,,,,,
9770.07,0.00222,106.6,,,,,,,
9770.17,0.00223,106.8,,,,,,,
9770.55,0.00227,108.47,,,,,,,
9771.03,0.00232,108.94,,,,,,,
9771.17,0.00233,108.59,,,,,,,
9771.47,0.00237,107.9,,,,,,,
9771.98,0.00242,104.63,,,,,,,
9772.17,0.00242,104.31,,,,,,,
9772.54,0.00247,106.22,,,,,,,
9773.01,0.00252,107.76,,,,,,,
9773.17,0.00253,107.32,,,,,,,
9773.6,0.00257,107.03,,,,,,,
9774.06,0.00262,107.38,,,,,,,
9774.17,0.00264,107.52,,,,,,,
9774.47,0.00267,106.18,,,,,,,
9774.99,0.00272,104.42,,,,,,,
9775.17,0.00274,103.88,,,,,,,
9775.58,0.00277,103.58,,,,,,,
9776.05,0.00282,105.32,,,,,,,
9776.17,0.00283,105.58,,,,,,,
9776.5,0.00287,105.75,,,,,,,
9776.94,0.00292,103.97,,,,,,,
9777.17,0.00294,102.47,,,,,,,
9777.5,0.00297,102.73,,,,,,,
9777.94,0.00302,101.35,,,,,,,
9778.17,0.00304,99.99,,,,,,,
9778.56,0.00307,102.2,,,,,,,
9779.08,0.00312,103.93,,,,,,,
9779.17,0.00314,104.54,,,,,,,
9779.51,0.00317,106.19,,,,,,,
9780.1,0.00322,106.48,,,,,,,
9780.17,0.00323,106.87,,,,,,,
9780.51,0.00327,107.7,,,,,,,
9780.98,0.00332,107.48,,,,,,,
9781.17,0.00333,106.86,,,,,,,
9781.58,0.00337,105.98,,,,,,,
9782.02,0.00342,106.23,,,,,,,
9782.17,0.00344,106.19,,,,,,,
9782.45,0.00347,105.24,,,,,,,
9783.09,0.00352,101.21,,,,,,,
9783.17,0.00354,101.67,,,,,,,
9783.51,0.00357,102.33,,,,,,,
9784.01,0.00362,102.05,,,,,,,
9784.17,0.00364,102.01,,,,,,,
9784.52,0.00367,103.23,,,,,,,
9784.96,0.00372,101.44,,,,,,,
9785.17,0.00372,100.75,,,,,,,
9785.6,0.00377,102.85,,,,,,,
9785.97,0.00382,104.32,,,,,,,
9786.17,0.00383,103.56,,,,,,,
9786.64,0.00387,106.21,,,,,,,
9787.06,0.00392,107.42,,,,,,,
9787.17,0.00393,107.42,,,,,,,
9787.47,0.00397,107.44,,,,,,,
9788.02,0.00402,106.84,,,,,,,
9788.17,0.00403,106.76,,,,,,,
9788.56,0.00407,107.33,,,,,,,
9788.97,0.00412,107.02,,,,,,,
9789.17,0.00413,106.09,,,,,,,
9789.46,0.00417,106.1,,,,,,,
9789.98,0.00422,102.21,,,,,,,
9790.17,0.00424,101.42,,,,,,,
9790.53,0.00427,101.4,,,,,,,
9790.99,0.00432,102.6,,,,,,,
9791.17,0.00434,102.03,,,,,,,
9791.38,0.00437,101.01,,,,,,,
9792.0,0.00442,97.77,,,,,,,
9792.17,0.00444,97.68,,,,,,,
9792.51,0.00447,98.67,,,,,,,
9793.0,0.00452,98.47,,,,,,,
9793.17,0.00455,98.15,,,,,,,
9793.6,0.00457,99.28,,,,,,,
9794.04,0.00462,102.04,,,,,,,
9794.17,0.00464,101.83,,,,,,,
9794.44,0.00467,102.13,,,,,,,
9795.1,0.00472,99.16,,,,,,,
9795.17,0.00474,99.72,,,,,,,
9795.62,0.00477,99.88,,,,,,,
9795.95,0.00482,100.81,,,,,,,
9796.17,0.00483,100.08,,,,,,,
9796.56,0.00487,103.11,,,,,,,
9797.04,0.00492,102.85,,,,,,,
9797.17,0.00495,102.44,,,,,,,
9797.63,0.00498,103.7,,,,,,,
9798.17,0.00499,97.13,,,,,,,
9798.86,0.00493,80.82,,,,,,,
9799.17,0.00489,76.09,,,,,,,
9799.39,0.00487,72.95,,,,,,,
9799.76,0.00482,68.03,,,,,,,
9800.17,0.00478,63.38,,,,,,,
9800.28,0.00477,62.46,,,,,,,
9800.81,0.00472,58.44,,,,,,,
9801.17,0.00469,56.25,,,,,,,
9801.34,0.00467,54.4,,,,,,,
9801.89,0.00462,49.89,,,,,,,
9802.17,0.00459,46.87,,,,,,,
9802.42,0.00457,44.34,,,,,,,
9802.94,0.00452,40.31,,,,,,,
9803.17,0.0045,37.99,,,,,,,
9803.54,0.00447,34.06,,,,,,,
9804.17,0.00443,19.9,,,,,,,
9804.18,0.00442,19.78,,,,,,,
9804.65,0.00437,10.9,,,,,,,
9805.17,0.00433,-0.1,,,,,,,
9805.27,0.00432,-1.26,,,,,,,
9806.12,0.00427,-14.08,,,,,,,
9806.17,0.00426,-15.54,,,,,,,
9806.46,0.00422,-17.23,,,,,,,
9806.83,0.00417,-18.93,,,,,,,
9807.04,0.00412,-21.9,,,,,,,
9807.17,0.0041,-22.91,,,,,,,
9807.45,0.00407,-23.93,,,,,,,
9807.92,0.00402,-24.01,,,,,,,
9808.17,0.004,-25.33,,,,,,,
9808.57,0.00397,-30.65,,,,,,,
9809.01,0.00392,-36.5,,,,,,,
9809.17,0.00391,-38.24,,,,,,,
9809.48,0.00387,-40.53,,,,,,,
9809.94,0.00382,-42.6,,,,,,,
9810.17,0.00379,-42.71,,,,,,,
9810.38,0.00377,-42.39,,,,,,,
9811.06,0.00372,-45.26,,,,,,,
9811.17,0.00371,-46.99,,,,,,,
9811.46,0.00367,-50.21,,,,,,,
9811.97,0.00362,-53.54,,,,,,,
9812.17,0.0036,-54.71,,,,,,,
9812.46,0.00357,-55.48,,,,,,,
9813.04,0.00352,-60.19,,,,,,,
9813.17,0.00351,-61.51,,,,,,,
9813.51,0.00347,-64.85,,,,,,,
9814.01,0.00342,-68.89,,,,,,,
9814.17,0.0034,-69.58,,,,,,,
9814.43,0.00337,-69.43,,,,,,,
9814.92,0.00332,-72.01,,,,,,,
9815.17,0.0033,-72.14,,,,,,,
9815.47,0.00327,-73.49,,,,,,,
9816.06,0.00322,-79.86,,,,,,,
9816.17,0.0032,-80.7,,,,,,,
9816.66,0.00317,-86.99,,,,,,,
9817.13,0.00312,-94.83,,,,,,,
9817.17,0.00311,-95.34,,,,,,,
9817.29,0.00307,-95.49,,,,,,,
9817.89,0.00302,-89.82,,,,,,,
9818.17,0.00298,-86.63,,,,,,,
9818.41,0.00297,-84.96,,,,,,,
9818.99,0.00292,-90.43,,,,,,,
9819.17,0.00289,-90.98,,,,,,,
9819.42,0.00287,-90.23,,,,,,,
9819.95,0.00282,-90.94,,,,,,,
9820.17,0.00281,-92.58,,,,,,,
9820.48,0.00277,-96.11,,,,,,,
9820.84,0.00272,-95.54,,,,,,,
9821.17,0.0027,-94.64,,,,,,,
9821.45,0.00267,-96.62,,,,,,,
9821.9,0.00262,-98.56,,,,,,,
9822.17,0.0026,-98.92,,,,,,,
9822.45,0.00257,-99.64,,,,,,,
9822.93,0.00252,-102.45,,,,,,,
9823.17,0.0025,-102.32,,,,,,,
9823.41,0.00247,-102.38,,,,,,,
9823.87,0.00242,-101.7,,,,,,,
9824.17,0.0024,-101.35,,,,,,,
9824.34,0.00237,-101.8,,,,,,,
9824.85,0.00232,-101.13,,,,,,,
9825.17,0.00229,-101.31,,,,,,,
9825.39,0.00227,-102.32,,,,,,,
9825.71,0.00222,-101.59,,,,,,,
9826.17,0.00218,-101.23,,,,,,,
9826.32,0.00217,-101.01,,,,,,,
9826.75,0.00212,-99.97,,,,,,,
9827.17,0.00208,-98.75,,,,,,,
9827.38,0.00207,-98.93,,,,,,,
9827.82,0.00202,-100.75,,,,,,,
9828.17,0.00198,-100.54,,,,,,,
9828.38,0.00197,-101.59,,,,,,,
9828.71,0.00192,-101.59,,,,,,,
9829.17,0.00188,-100.01,,,,,,,
9829.27,0.00187,-99.98,,,,,,,
9829.8,0.00182,-98.4,,,,,,,
9830.15,0.00177,-97.3,,,,,,,
9830.17,0.00177,-97.15,,,,,,,
9830.8,0.00172,-100.62,,,,,,,
9831.17,0.00168,-101.63,,,,,,,
9831.27,0.00167,-101.81,,,,,,,
9831.78,0.00162,-100.77,,,,,,,
9832.15,0.00157,-101.26,,,,,,,
9832.17,0.00157,-101.17,,,,,,,
9832.7,0.00152,-99.3,,,,,,,
9833.17,0.00147,-97.73,,,,,,,
9833.2,0.00147,-97.72,,,,,,,
9833.76,0.00142,-99.11,,,,,,,
9834.17,0.00137,-99.39,,,,,,,
9834.18,0.00137,-99.36,,,,,,,
9834.81,0.00132,-101.09,,,,,,,
9835.16,0.00127,-100.62,,,,,,,
9835.17,0.00127,-100.56,,,,,,,
9835.8,0.00122,-100.38,,,,,,,
9836.12,0.00117,-100.01,,,,,,,
9836.17,0.00116,-99.59,,,,,,,
9836.66,0.00112,-99.28,,,,,,,
9837.17,0.00107,-97.78,,,,,,,
9837.18,0.00107,-97.8,,,,,,,
9837.7,0.00102,-97.79,,,,,,,
9838.17,0.00098,-97.96,,,,,,,
9838.27,0.00097,-98.88,,,,,,,
9838.74,0.00092,-101.31,,,,,,,
9839.17,0.00088,-100.34,,,,,,,
9839.33,0.00087,-100.98,,,,,,,
9839.8,0.00082,-103.22,,,,,,,
9840.17,0.00077,-105.62,,,,,,,
9840.19,0.00077,-105.61,,,,,,,
9840.65,0.00072,-102.52,,,,,,,
9841.14,0.00067,-101.13,,,,,,,
9841.17,0.00066,-101.07,,,,,,,
9841.73,0.00062,-101.13,,,,,,,
9842.17,0.00057,-103.09,,,,,,,
9842.2,0.00057,-103.26,,,,,,,
9842.68,0.00052,-103.79,,,,,,,
9843.17,0.00048,-103.67,,,,,,,
9843.25,0.00047,-103.94,,,,,,,
9843.73,0.00042,-102.84,,,,,,,
9844.17,0.00037,-102.49,,,,,,,
9844.18,0.00037,-102.5,,,,,,,
9844.74,0.00032,-102.52,,,,,,,
9845.17,0.00028,-103.75,,,,,,,
9845.28,0.00027,-104.96,,,,,,,
9845.79,0.00022,-105.52,,,,,,,
9846.17,0.00017,-109.25,,,,,,,
9846.23,0.00017,-109.46,,,,,,,
9846.68,0.00012,-108.3,,,,,,,
9847.17,7e-05,-107.3,,,,,,,
9847.17,7e-05,-107.29,,,,,,,
9847.63,2e-05,-105.21,,,,,,,
9848.16,-3e-05,-102.52,,,,,,,
9848.17,-3e-05,-102.51,,,,,,,
9848.72,-8e-05,-103.29,,,,,,,
9849.17,-0.00013,-104.64,,,,,,,
9849.23,-0.00013,-104.98,,,,,,,
9849.72,-0.00018,-106.72,,,,,,,
9850.17,-0.00023,-107.42,,,,,,,
9850.22,-0.00023,-107.55,,,,,,,
9850.78,-0.00028,-108.12,,,,,,,
9851.17,-0.00033,-110.96,,,,,,,
9851.2,-0.00033,-111.03,,,,,,,
9851.59,-0.00038,-108.74,,,,,,,
9852.1,-0.00043,-101.44,,,,,,,
9852.17,-0.00044,-101.1,,,,,,,
9852.71,-0.00048,-99.41,,,,,,,
9853.12,-0.00053,-98.71,,,,,,,
9853.17,-0.00054,-98.62,,,,,,,
9853.72,-0.00058,-97.31,,,,,,,
9854.14,-0.00063,-98.01,,,,,,,
9854.17,-0.00064,-98.01,,,,,,,
9854.74,-0.00068,-101.68,,,,,,,
9855.17,-0.00073,-102.73,,,,,,,
9855.18,-0.00073,-102.75,,,,,,,
9855.71,-0.00078,-102.46,,,,,,,
9856.13,-0.00083,-104.15,,,,,,,
9856.17,-0.00084,-103.96,,,,,,,
9856.72,-0.00088,-105.09,,,,,,,
9857.15,-0.00093,-105.45,,,,,,,
9857.17,-0.00094,-105.45,,,,,,,
9857.75,-0.00098,-107.74,,,,,,,
9858.17,-0.00103,-109.0,,,,,,,
9858.21,-0.00103,-108.9,,,,,,,
9858.74,-0.00108,-110.44,,,,,,,
9859.15,-0.00113,-109.68,,,,,,,
9859.17,-0.00114,-109.57,,,,,,,
9859.71,-0.00118,-107.87,,,,,,,
9860.05,-0.00124,-107.2,,,,,,,
9860.17,-0.00124,-106.03,,,,,,,
9860.6,-0.00129,-104.65,,,,,,,
9861.13,-0.00134,-104.54,,,,,,,
9861.17,-0.00134,-104.56,,,,,,,
9861.68,-0.00139,-104.05,,,,,,,
9862.09,-0.00144,-103.73,,,,,,,
9862.17,-0.00144,-103.32,,,,,,,
9862.71,-0.00149,-102.29,,,,,,,
9863.16,-0.00154,-103.28,,,,,,,
9863.17,-0.00154,-103.28,,,,,,,
9863.62,-0.00159,-101.42,,,,,,,
9864.13,-0.00164,-103.62,,,,,,,
9864.17,-0.00164,-103.69,,,,,,,
9864.68,-0.00169,-102.67,,,,,,,
9865.17,-0.00172,-102.65,,,,,,,
9865.23,-0.00174,-103.17,,,,,,,
9865.59,-0.00179,-103.69,,,,,,,
9866.17,-0.00182,-104.45,,,,,,,
9866.32,-0.00184,-107.17,,,,,,,
9866.59,-0.00189,-108.3,,,,,,,
9867.17,-0.00192,-109.72,,,,,,,
9867.24,-0.00194,-110.52,,,,,,,
9867.62,-0.00199,-109.59,,,,,,,
9868.17,-0.00203,-105.72,,,,,,,
9868.21,-0.00204,-105.89,,,,,,,
9868.68,-0.00209,-104.13,,,,,,,
9869.17,-0.00213,-104.79,,,,,,,
9869.23,-0.00214,-105.17,,,,,,,
9869.67,-0.00219,-105.53,,,,,,,
9870.17,-0.00223,-104.94,,,,,,,
9870.21,-0.00224,-104.96,,,,,,,
9870.66,-0.00229,-108.35,,,,,,,
9871.17,-0.00233,-107.5,,,,,,,
9871.22,-0.00234,-107.94,,,,,,,
9871.73,-0.00239,-108.73,,,,,,,
9872.17,-0.00243,-109.58,,,,,,,
9872.29,-0.00244,-110.26,,,,,,,
9872.64,-0.00249,-112.07,,,,,,,
9873.06,-0.00254,-109.76,,,,,,,
9873.17,-0.00255,-108.56,,,,,,,
9873.65,-0.00259,-105.58,,,,,,,
9874.17,-0.00264,-109.7,,,,,,,
9874.18,-0.00264,-109.68,,,,,,,
9874.6,-0.00269,-110.0,,,,,,,
9875.17,-0.00273,-112.2,,,,,,,
9875.21,-0.00274,-112.26,,,,,,,
9875.74,-0.00279,-111.5,,,,,,,
9876.17,-0.00282,-112.85,,,,,,,
9876.25,-0.00284,-113.29,,,,,,,
9876.75,-0.00289,-114.7,,,,,,,
9877.12,-0.00294,-112.89,,,,,,,
9877.17,-0.00294,-112.45,,,,,,,
9877.83,-0.00299,-112.5,,,,,,,
9878.17,-0.00303,-111.52,,,,,,,
9878.23,-0.00304,-111.43,,,,,,,
9878.59,-0.00309,-110.15,,,,,,,
9879.17,-0.00314,-109.42,,,,,,,
9879.21,-0.00314,-109.45,,,,,,,
9879.64,-0.00319,-107.09,,,,,,,
9880.13,-0.00324,-104.97,,,,,,,
9880.17,-0.00325,-104.88,,,,,,,
9880.65,-0.00329,-102.04,,,,,,,
9881.11,-0.00334,-101.41,,,,,,,
9881.17,-0.00335,-101.23,,,,,,,
9881.74,-0.00339,-98.94,,,,,,,
9882.17,-0.00343,-104.06,,,,,,,
9882.36,-0.00344,-106.26,,,,,,,
9882.85,-0.00349,-109.66,,,,,,,
9883.17,-0.00353,-113.07,,,,,,,
9883.29,-0.00354,-113.43,,,,,,,
9883.72,-0.00359,-114.6,,,,,,,
9884.17,-0.00364,-113.47,,,,,,,
9884.19,-0.00364,-113.44,,,,,,,
9884.75,-0.00369,-112.6,,,,,,,
9885.17,-0.00374,-112.69,,,,,,,
9885.18,-0.00374,-112.66,,,,,,,
9885.72,-0.00379,-109.94,,,,,,,
9886.12,-0.00384,-108.16,,,,,,,
9886.17,-0.00384,-107.8,,,,,,,
9886.68,-0.00389,-106.2,,,,,,,
9887.17,-0.00394,-106.25,,,,,,,
9887.2,-0.00394,-106.34,,,,,,,
9887.63,-0.00399,-104.84,,,,,,,
9888.17,-0.00403,-101.15,,,,,,,
9888.26,-0.00404,-101.63,,,,,,,
9888.71,-0.00409,-101.59,,,,,,,
9889.17,-0.00413,-104.4,,,,,,,
9889.26,-0.00414,-104.96,,,,,,,
9889.68,-0.00419,-104.58,,,,,,,
9890.17,-0.00422,-104.61,,,,,,,
9890.29,-0.00424,-105.99,,,,,,,
9890.64,-0.00429,-106.16,,,,,,,
9891.13,-0.00434,-103.71,,,,,,,
9891.17,-0.00435,-103.51,,,,,,,
9891.88,-0.00439,-106.11,,,,,,,
9892.17,-0.00443,-109.6,,,,,,,
9892.25,-0.00444,-109.84,,,,,,,
9892.7,-0.00449,-108.74,,,,,,,
9893.17,-0.00454,-108.05,,,,,,,
9893.2,-0.00454,-107.99,,,,,,,
9893.63,-0.00459,-106.63,,,,,,,
9894.17,-0.00464,-103.16,,,,,,,
9894.26,-0.00464,-103.31,,,,,,,
9894.67,-0.00469,-103.38,,,,,,,
9895.17,-0.00472,-105.42,,,,,,,
9895.27,-0.00474,-106.68,,,,,,,
9895.7,-0.00479,-109.07,,,,,,,
9896.17,-0.00483,-111.37,,,,,,,
9896.26,-0.00484,-112.1,,,,,,,
9896.8,-0.00489,-111.7,,,,,,,
9897.17,-0.00494,-112.92,,,,,,,
9897.23,-0.00494,-112.81,,,,,,,
9897.7,-0.00499,-110.36,,,,,,,
9898.17,-0.00499,-103.62,,,,,,,
9898.75,-0.00494,-89.98,,,,,,,
9899.13,-0.00489,-83.93,,,,,,,
9899.17,-0.00489,-83.55,,,,,,,
9899.77,-0.00484,-75.85,,,,,,,
9900.17,-0.0048,-68.62,,,,,,,
9900.22,-0.00479,-67.98,,,,,,,
9900.77,-0.00474,-61.71,,,,,,,
9901.17,-0.0047,-57.68,,,,,,,
9901.26,-0.00469,-56.91,,,,,,,
9901.76,-0.00464,-52.98,,,,,,,
9902.17,-0.00461,-46.78,,,,,,,
9902.35,-0.00459,-44.26,,,,,,,
9902.87,-0.00454,-35.0,,,,,,,
9903.17,-0.00451,-29.47,,,,,,,
9903.26,-0.00449,-28.21,,,,,,,
9903.95,-0.00444,-19.11,,,,,,,
9904.17,-0.00442,-15.5,,,,,,,
9904.44,-0.00439,-12.23,,,,,,,
9904.86,-0.00434,-6.83,,,,,,,
9905.17,-0.00431,-4.33,,,,,,,
9905.34,-0.00429,-2.97,,,,,,,
9905.79,-0.00424,-1.03,,,,,,,
9906.17,-0.00422,0.16,,,,,,,
9906.49,-0.00419,6.66,,,,,,,
9907.17,-0.00414,13.83,,,,,,,
9907.25,-0.00414,13.91,,,,,,,
9907.67,-0.00409,17.69,,,,,,,
9908.17,-0.00404,23.53,,,,,,,
9908.22,-0.00404,24.22,,,,,,,
9908.7,-0.00399,28.88,,,,,,,
9909.17,-0.00395,34.97,,,,,,,
9909.2,-0.00394,35.26,,,,,,,
9909.39,-0.00389,38.66,,,,,,,
9909.74,-0.00384,39.22,,,,,,,
9910.17,-0.0038,41.43,,,,,,,
9910.34,-0.00379,42.5,,,,,,,
9910.85,-0.00374,47.74,,,,,,,
9911.17,-0.00371,49.1,,,,,,,
9911.4,-0.00369,52.76,,,,,,,
9911.88,-0.00364,58.75,,,,,,,
9912.17,-0.0036,60.6,,,,,,,
9912.33,-0.00359,60.9,,,,,,,
9912.87,-0.00354,64.51,,,,,,,
9913.17,-0.0035,66.55,,,,,,,
9913.33,-0.00349,67.26,,,,,,,
9913.86,-0.00344,70.49,,,,,,,
9914.17,-0.00341,73.23,,,,,,,
9914.33,-0.00339,74.93,,,,,,,
9914.94,-0.00334,80.72,,,,,,,
9915.17,-0.00331,82.89,,,,,,,
9915.4,-0.00329,85.21,,,,,,,
9915.75,-0.00324,84.96,,,,,,,
9916.17,-0.0032,83.27,,,,,,,
9916.24,-0.00319,83.12,,,,,,,
9916.86,-0.00314,87.49,,,,,,,
9917.17,-0.00311,89.21,,,,,,,
9917.38,-0.00309,91.1,,,,,,,
9917.84,-0.00304,93.62,,,,,,,
9918.17,-0.00301,95.43,,,,,,,
9918.33,-0.00299,96.66,,,,,,,
9918.76,-0.00294,95.89,,,,,,,
9919.17,-0.0029,97.22,,,,,,,
9919.37,-0.00289,98.68,,,,,,,
9919.84,-0.00284,98.42,,,,,,,
9920.14,-0.00279,99.01,,,,,,,
9920.17,-0.00278,98.84,,,,,,,
9920.64,-0.00274,93.51,,,,,,,
9921.17,-0.00269,93.63,,,,,,,
9921.21,-0.00269,93.72,,,,,,,
9921.73,-0.00264,95.18,,,,,,,
9922.17,-0.0026,98.44,,,,,,,
9922.31,-0.00259,99.87,,,,,,,
9922.68,-0.00254,100.5,,,,,,,
9923.17,-0.00249,99.35,,,,,,,
9923.25,-0.00249,99.58,,,,,,,
9923.73,-0.00244,100.41,,,,,,,
9924.17,-0.00239,101.1,,,,,,,
9924.23,-0.00239,101.37,,,,,,,
9924.73,-0.00234,103.55,,,,,,,
9925.17,-0.00229,103.32,,,,,,,
9925.19,-0.00229,103.31,,,,,,,
9925.7,-0.00224,103.32,,,,,,,
9926.12,-0.00219,102.77,,,,,,,
9926.17,-0.00218,102.59,,,,,,,
9926.61,-0.00214,101.76,,,,,,,
9927.15,-0.00209,100.68,,,,,,,
9927.17,-0.00209,100.73,,,,,,,
9927.6,-0.00204,100.88,,,,,,,
9928.13,-0.00199,99.67,,,,,,,
9928.17,-0.00198,99.62,,,,,,,
9928.52,-0.00194,98.95,,,,,,,
9929.02,-0.00189,95.55,,,,,,,
9929.17,-0.00188,94.96,,,,,,,
9929.6,-0.00184,95.66,,,,,,,
9930.1,-0.00179,95.42,,,,,,,
9930.17,-0.00178,95.54,,,,,,,
9930.61,-0.00174,96.05,,,,,,,
9931.12,-0.00169,97.56,,,,,,,
9931.17,-0.00168,97.94,,,,,,,
9931.58,-0.00164,99.47,,,,,,,
9932.11,-0.00159,101.07,,,,,,,
9932.17,-0.00158,101.31,,,,,,,
9932.53,-0.00154,102.22,,,,,,,
9933.14,-0.00149,100.27,,,,,,,
9933.17,-0.00148,100.44,,,,,,,
9933.54,-0.00144,101.61,,,,,,,
9934.11,-0.00139,100.96,,,,,,,
9934.17,-0.00138,101.19,,,,,,,
9934.61,-0.00134,101.82,,,,,,,
9934.96,-0.00129,102.07,,,,,,,
9935.17,-0.00127,100.87,,,,,,,
9935.53,-0.00124,98.53,,,,,,,
9936.05,-0.00119,98.31,,,,,,,
9936.17,-0.00117,98.51,,,,,,,
9936.52,-0.00114,99.01,,,,,,,
9937.08,-0.00109,100.72,,,,,,,
9937.17,-0.00108,101.05,,,,,,,
9937.61,-0.00104,101.87,,,,,,,
9938.0,-0.00099,103.41,,,,,,,
9938.17,-0.00097,102.8,,,,,,,
9938.55,-0.00094,101.15,,,,,,,
9938.92,-0.00088,100.04,,,,,,,
9939.17,-0.00086,98.09,,,,,,,
9939.46,-0.00083,96.72,,,,,,,
9940.08,-0.00078,97.33,,,,,,,
9940.17,-0.00078,97.97,,,,,,,
9940.56,-0.00073,100.73,,,,,,,
9941.06,-0.00068,102.8,,,,,,,
9941.17,-0.00067,102.91,,,,,,,
9941.48,-0.00063,102.77,,,,,,,
9941.97,-0.00058,97.41,,,,,,,
9942.17,-0.00057,96.63,,,,,,,
9942.51,-0.00053,95.4,,,,,,,
9942.9,-0.00048,94.51,,,,,,,
9943.17,-0.00049,95.07,,,,,,,
9943.56,-0.00043,101.31,,,,,,,
9944.09,-0.00038,102.27,,,,,,,
9944.17,-0.00037,102.76,,,,,,,
9944.57,-0.00033,104.63,,,,,,,
9945.03,-0.00028,105.97,,,,,,,
9945.17,-0.00026,105.54,,,,,,,
9945.42,-0.00023,103.49,,,,,,,
9946.08,-0.00018,100.85,,,,,,,
9946.17,-0.00016,101.36,,,,,,,
9946.54,-0.00013,101.55,,,,,,,
9947.04,-8e-05,101.3,,,,,,,
9947.17,-8e-05,102.02,,,,,,,
9947.49,-3e-05,103.15,,,,,,,
19748.52,3e-05,100.86,,,,,,,
19749.17,8e-05,96.84,,,,,,,
19749.17,8e-05,96.84,,,,,,,
19749.71,0.00013,99.39,,,,,,,
19750.17,0.00017,99.85,,,,,,,
19750.23,0.00018,100.03,,,,,,,
19750.74,0.00023,100.42,,,,,,,
19751.17,0.00027,101.76,,,,,,,
19751.2,0.00028,101.77,,,,,,,
19751.74,0.00033,100.74,,,,,,,
19752.09,0.00038,100.49,,,,,,,
19752.17,0.00038,99.69,,,,,,,
19752.57,0.00043,97.62,,,,,,,
19753.16,0.00048,95.07,,,,,,,
19753.17,0.00048,95.12,,,,,,,
19753.83,0.00053,98.0,,,,,,,
19754.16,0.00058,100.06,,,,,,,
19754.17,0.00058,100.09,,,,,,,
19754.7,0.00063,98.93,,,,,,,
19755.13,0.00068,97.69,,,,,,,
19755.17,0.00069,97.5,,,,,,,
19755.64,0.00073,95.81,,,,,,,
19756.09,0.00078,94.13,,,,,,,
19756.17,0.00078,93.61,,,,,,,
19756.64,0.00083,95.26,,,,,,,
19757.17,0.00087,93.71,,,,,,,
19757.23,0.00088,93.89,,,,,,,
19757.87,0.00093,97.06,,,,,,,
19758.17,0.00097,100.92,,,,,,,
19758.23,0.00098,101.48,,,,,,,
19758.83,0.00103,104.14,,,,,,,
19759.17,0.00107,107.11,,,,,,,
19759.25,0.00108,107.44,,,,,,,
19759.72,0.00113,106.29,,,,,,,
19760.17,0.00116,104.0,,,,,,,
19760.3,0.00118,104.82,,,,,,,
19760.74,0.00123,104.37,,,,,,,
19761.17,0.00127,103.38,,,,,,,
19761.23,0.00128,103.49,,,,,,,
19761.65,0.00133,102.16,,,,,,,
19762.17,0.00138,99.74,,,,,,,
19762.21,0.00138,99.73,,,,,,,
19762.7,0.00143,101.15,,,,,,,
19763.12,0.00148,99.04,,,,,,,
19763.17,0.00148,98.85,,,,,,,
19763.79,0.00153,100.69,,,,,,,
19764.17,0.00158,102.14,,,,,,,
19764.24,0.00158,102.06,,,,,,,
19764.71,0.00163,102.14,,,,,,,
19765.14,0.00168,101.66,,,,,,,
19765.17,0.00169,101.46,,,,,,,
19765.8,0.00173,99.74,,,,,,,
19766.11,0.00178,101.23,,,,,,,
19766.17,0.00179,100.8,,,,,,,
19766.81,0.00183,101.04,,,,,,,
19767.17,0.00187,103.17,,,,,,,
19767.31,0.00188,104.08,,,,,,,
19767.65,0.00193,104.49,,,,,,,
19768.1,0.00198,102.79,,,,,,,
19768.17,0.00199,102.21,,,,,,,
19768.75,0.00203,100.07,,,,,,,
19769.17,0.00208,99.08,,,,,,,
19769.17,0.00208,99.08,,,,,,,
19769.75,0.00213,101.25,,,,,,,
19770.17,0.00217,100.72,,,,,,,
19770.26,0.00218,101.21,,,,,,,
19770.76,0.00223,103.63,,,,,,,
19771.17,0.00227,103.65,,,,,,,
19771.26,0.00228,103.89,,,,,,,
19771.76,0.00233,103.7,,,,,,,
19772.17,0.00238,103.33,,,,,,,
19772.17,0.00238,103.29,,,,,,,
19772.7,0.00243,102.75,,,,,,,
19773.17,0.00247,101.68,,,,,,,
19773.25,0.00248,102.02,,,,,,,
19773.76,0.00253,102.1,,,,,,,
19774.17,0.00258,102.67,,,,,,,
19774.17,0.00258,102.67,,,,,,,
19774.75,0.00263,101.68,,,,,,,
19775.17,0.00267,102.86,,,,,,,
19775.26,0.00268,103.46,,,,,,,
19775.66,0.00273,103.09,,,,,,,
19776.17,0.00277,106.5,,,,,,,
19776.25,0.00278,107.0,,,,,,,
19776.75,0.00283,106.71,,,,,,,
19777.17,0.00288,107.06,,,,,,,
19777.2,0.00288,107.01,,,,,,,
19777.7,0.00293,107.17,,,,,,,
19778.17,0.00298,107.32,,,,,,,
19778.21,0.00298,107.35,,,,,,,
19778.76,0.00303,105.54,,,,,,,
19779.17,0.00308,105.42,,,,,,,
19779.18,0.00308,105.37,,,,,,,
19779.66,0.00313,103.5,,,,,,,
19780.17,0.00318,101.39,,,,,,,
19780.27,0.00318,101.4,,,,,,,
19780.75,0.00323,102.56,,,,,,,
19781.17,0.00328,102.32,,,,,,,
19781.21,0.00328,102.41,,,,,,,
19781.68,0.00333,102.57,,,,,,,
19782.17,0.00338,103.38,,,,,,,
19782.21,0.00338,103.47,,,,,,,
19782.65,0.00343,103.49,,,,,,,
19783.17,0.00348,100.96,,,,,,,
19783.68,0.00353,100.43,,,,,,,
19784.17,0.00358,101.16,,,,,,,
19784.19,0.00358,101.2,,,,,,,
19784.7,0.00363,98.3,,,,,,,
19785.17,0.00368,98.67,,,,,,,
19785.33,0.00368,99.61,,,,,,,
19785.77,0.00373,102.39,,,,,,,
19786.17,0.00378,102.37,,,,,,,
19786.26,0.00378,102.57,,,,,,,
19786.73,0.00383,105.66,,,,,,,
19787.17,0.00388,104.74,,,,,,,
19787.21,0.00388,104.71,,,,,,,
19787.68,0.00393,102.87,,,,,,,
19788.17,0.00398,100.48,,,,,,,
19788.26,0.00398,100.83,,,,,,,
19788.78,0.00403,103.23,,,,,,,
19789.17,0.00407,105.69,,,,,,,
19789.25,0.00408,105.95,,,,,,,
19789.72,0.00413,104.68,,,,,,,
19790.17,0.00418,103.19,,,,,,,
19790.23,0.00418,102.97,,,,,,,
19790.71,0.00423,104.75,,,,,,,
19791.17,0.00428,103.54,,,,,,,
19791.22,0.00428,103.64,,,,,,,
19791.68,0.00433,99.6,,,,,,,
19792.17,0.00438,98.45,,,,,,,
19792.17,0.00438,98.43,,,,,,,
19792.7,0.00443,97.42,,,,,,,
19793.17,0.00448,97.54,,,,,,,
19793.26,0.00448,97.94,,,,,,,
19793.78,0.00454,99.66,,,,,,,
19794.17,0.00457,99.38,,,,,,,
19794.27,0.00459,99.77,,,,,,,
19794.73,0.00464,100.0,,,,,,,
19795.17,0.00468,100.5,,,,,,,
19795.31,0.00469,101.08,,,,,,,
19795.74,0.00474,102.34,,,,,,,
19796.12,0.00479,100.23,,,,,,,
19796.17,0.00479,99.72,,,,,,,
19796.67,0.00484,97.44,,,,,,,
19797.17,0.00488,96.96,,,,,,,
19797.21,0.00489,96.87,,,,,,,
19797.75,0.00494,98.12,,,,,,,
19798.17,0.00498,96.28,,,,,,,
19798.39,0.00499,97.65,,,,,,,
19799.17,0.00494,89.67,,,,,,,
19799.22,0.00494,89.03,,,,,,,
19799.68,0.00489,83.99,,,,,,,
19800.17,0.00485,80.98,,,,,,,
19800.39,0.00484,77.78,,,,,,,
19800.8,0.00479,72.49,,,,,,,
19801.17,0.00475,66.97,,,,,,,
19801.38,0.00474,63.73,,,,,,,
19801.87,0.00469,58.2,,,,,,,
19802.17,0.00466,55.25,,,,,,,
19802.4,0.00464,52.71,,,,,,,
19802.85,0.00459,46.59,,,,,,,
19803.17,0.00455,44.57,,,,,,,
19803.38,0.00454,42.76,,,,,,,
19803.93,0.00448,37.17,,,,,,,
19804.17,0.00447,32.83,,,,,,,
19804.44,0.00443,29.46,,,,,,,
19805.07,0.00438,20.89,,,,,,,
19805.17,0.00437,19.06,,,,,,,
19805.6,0.00433,12.16,,,,,,,
19805.99,0.00428,7.01,,,,,,,
19806.17,0.00426,6.47,,,,,,,
19806.51,0.00423,3.76,,,,,,,
19807.17,0.00419,1.83,,,,,,,
19807.32,0.00418,0.88,,,,,,,
19807.94,0.00413,-5.96,,,,,,,
19808.17,0.00409,-8.99,,,,,,,
19808.22,0.00408,-9.15,,,,,,,
19808.8,0.00403,-12.66,,,,,,,
19809.17,0.00399,-17.39,,,,,,,
19809.19,0.00398,-17.9,,,,,,,
19809.47,0.00393,-22.22,,,,,,,
19809.93,0.00388,-26.04,,,,,,,
19810.17,0.00386,-26.74,,,,,,,
19810.44,0.00383,-27.57,,,,,,,
19810.96,0.00378,-30.68,,,,,,,
19811.17,0.00376,-32.1,,,,,,,
19811.57,0.00373,-37.46,,,,,,,
19811.96,0.00368,-41.95,,,,,,,
19812.17,0.00366,-43.43,,,,,,,
19812.4,0.00363,-44.82,,,,,,,
19812.89,0.00358,-46.66,,,,,,,
19813.17,0.00355,-47.38,,,,,,,
19813.48,0.00353,-49.08,,,,,,,
19813.96,0.00348,-54.1,,,,,,,
19814.17,0.00346,-55.9,,,,,,,
19814.45,0.00343,-56.85,,,,,,,
19815.04,0.00338,-61.02,,,,,,,
19815.17,0.00336,-62.72,,,,,,,
19815.41,0.00333,-63.43,,,,,,,
19815.97,0.00328,-67.11,,,,,,,
19816.17,0.00326,-68.0,,,,,,,
19816.46,0.00323,-69.91,,,,,,,
19817.03,0.00318,-75.57,,,,,,,
19817.17,0.00316,-76.56,,,,,,,
19817.48,0.00313,-78.56,,,,,,,
19817.98,0.00308,-82.68,,,,,,,
19818.17,0.00306,-82.98,,,,,,,
19818.51,0.00303,-84.69,,,,,,,
19818.93,0.00298,-90.37,,,,,,,
19819.17,0.00296,-90.0,,,,,,,
19819.38,0.00293,-89.19,,,,,,,
19819.97,0.00288,-90.65,,,,,,,
19820.17,0.00284,-90.39,,,,,,,
19820.33,0.00283,-88.71,,,,,,,
19820.82,0.00278,-88.28,,,,,,,
19821.17,0.00275,-87.49,,,,,,,
19821.37,0.00273,-87.21,,,,,,,
19821.95,0.00268,-89.11,,,,,,,
19822.17,0.00266,-90.59,,,,,,,
19822.41,0.00263,-92.29,,,,,,,
19822.92,0.00258,-93.09,,,,,,,
19823.17,0.00255,-93.32,,,,,,,
19823.29,0.00253,-92.67,,,,,,,
19823.97,0.00248,-93.96,,,,,,,
19824.17,0.00245,-94.9,,,,,,,
19824.38,0.00243,-95.04,,,,,,,
19824.85,0.00238,-94.81,,,,,,,
19825.17,0.00235,-95.88,,,,,,,
19825.41,0.00233,-96.37,,,,,,,
19825.82,0.00228,-97.79,,,,,,,
19826.17,0.00226,-98.72,,,,,,,
19826.46,0.00223,-101.26,,,,,,,
19826.78,0.00218,-101.1,,,,,,,
19827.17,0.00214,-98.87,,,,,,,
19827.24,0.00213,-98.38,,,,,,,
19827.8,0.00208,-98.28,,,,,,,
19828.17,0.00204,-97.21,,,,,,,
19828.25,0.00203,-96.93,,,,,,,
19828.88,0.00198,-98.9,,,,,,,
19829.17,0.00194,-99.95,,,,,,,
19829.28,0.00193,-99.59,,,,,,,
19829.83,0.00188,-99.46,,,,,,,
19830.17,0.00185,-99.95,,,,,,,
19830.38,0.00183,-102.48,,,,,,,
19830.85,0.00178,-103.67,,,,,,,
19831.17,0.00174,-103.91,,,,,,,
19831.25,0.00173,-103.86,,,,,,,
19831.81,0.00168,-102.39,,,,,,,
19832.11,0.00163,-101.21,,,,,,,
19832.17,0.00162,-100.46,,,,,,,
19832.7,0.00158,-97.93,,,,,,,
19833.17,0.00153,-98.31,,,,,,,
19833.19,0.00153,-98.3,,,,,,,
19833.83,0.00148,-97.77,,,,,,,
19834.13,0.00143,-98.33,,,,,,,
19834.17,0.00143,-98.01,,,,,,,
19834.69,0.00138,-96.47,,,,,,,
19835.17,0.00133,-96.83,,,,,,,
19835.19,0.00133,-96.78,,,,,,,
19835.71,0.00128,-96.91,,,,,,,
19836.12,0.00123,-99.5,,,,,,,
19836.17,0.00122,-99.18,,,,,,,
19836.58,0.00118,-96.87,,,,,,,
19837.17,0.00114,-95.8,,,,,,,
19837.22,0.00113,-96.21,,,,,,,
19837.66,0.00108,-96.47,,,,,,,
19838.17,0.00104,-95.94,,,,,,,
19838.28,0.00103,-96.62,,,,,,,
19838.76,0.00098,-97.88,,,,,,,
19839.13,0.00093,-98.1,,,,,,,
19839.17,0.00092,-97.97,,,,,,,
19839.67,0.00088,-99.07,,,,,,,
19840.17,0.00083,-99.7,,,,,,,
19840.23,0.00083,-99.7,,,,,,,
19840.7,0.00078,-99.89,,,,,,,
19841.17,0.00073,-100.8,,,,,,,
19841.18,0.00073,-100.83,,,,,,,
19841.68,0.00068,-102.39,,,,,,,
19842.16,0.00063,-102.3,,,,,,,
19842.17,0.00063,-102.27,,,,,,,
19842.62,0.00058,-100.41,,,,,,,
19843.17,0.00054,-102.79,,,,,,,
19843.28,0.00053,-103.88,,,,,,,
19843.75,0.00048,-104.86,,,,,,,
19844.17,0.00043,-104.63,,,,,,,
19844.22,0.00043,-104.69,,,,,,,
19844.67,0.00038,-104.46,,,,,,,
19845.17,0.00034,-104.79,,,,,,,
19845.29,0.00033,-105.64,,,,,,,
19845.76,0.00028,-107.6,,,,,,,
19846.17,0.00023,-108.2,,,,,,,
19846.2,0.00023,-108.2,,,,,,,
19846.62,0.00018,-107.02,,,,,,,
19847.06,0.00013,-104.87,,,,,,,
19847.17,0.00012,-103.52,,,,,,,
19847.64,8e-05,-99.62,,,,,,,
19848.17,4e-05,-98.99,,,,,,,
19848.27,3e-05,-99.84,,,,,,,
19848.85,-2e-05,-103.56,,,,,,,
19849.15,-7e-05,-105.54,,,,,,,
19849.17,-7e-05,-105.44,,,,,,,
19849.7,-0.00012,-105.52,,,,,,,
19850.15,-0.00017,-104.8,,,,,,,
19850.17,-0.00018,-104.88,,,,,,,
19850.72,-0.00022,-101.76,,,,,,,
19851.17,-0.00027,-102.19,,,,,,,
19851.19,-0.00027,-102.29,,,,,,,
19851.63,-0.00032,-100.45,,,,,,,
19852.17,-0.00037,-100.43,,,,,,,
19852.21,-0.00037,-100.7,,,,,,,
19852.56,-0.00042,-99.44,,,,,,,
19853.11,-0.00047,-101.27,,,,,,,
19853.17,-0.00048,-101.17,,,,,,,
19853.61,-0.00052,-98.82,,,,,,,
19854.17,-0.00056,-104.16,,,,,,,
19854.22,-0.00057,-105.04,,,,,,,
19854.78,-0.00062,-106.27,,,,,,,
19855.09,-0.00067,-105.41,,,,,,,
19855.17,-0.00068,-104.77,,,,,,,
19855.62,-0.00072,-102.52,,,,,,,
19856.17,-0.00077,-101.67,,,,,,,
19856.27,-0.00077,-102.72,,,,,,,
19856.53,-0.00082,-102.95,,,,,,,
19857.17,-0.00087,-98.45,,,,,,,
19857.23,-0.00087,-98.75,,,,,,,
19857.68,-0.00092,-99.82,,,,,,,
19858.17,-0.00097,-102.6,,,,,,,
19858.2,-0.00097,-102.87,,,,,,,
19858.67,-0.00102,-103.71,,,,,,,
19859.13,-0.00107,-102.46,,,,,,,
19859.17,-0.00108,-102.4,,,,,,,
19859.6,-0.00112,-100.84,,,,,,,
19860.06,-0.00117,-99.38,,,,,,,
19860.17,-0.00118,-98.82,,,,,,,
19860.6,-0.00122,-98.91,,,,,,,
19861.12,-0.00127,-98.17,,,,,,,
19861.17,-0.00128,-98.18,,,,,,,
19861.58,-0.00132,-99.35,,,,,,,
19862.15,-0.00137,-99.9,,,,,,,
19862.17,-0.00138,-99.97,,,,,,,
19862.69,-0.00142,-100.95,,,,,,,
19863.12,-0.00147,-101.41,,,,,,,
19863.17,-0.00148,-101.28,,,,,,,
19863.71,-0.00152,-101.75,,,,,,,
19864.11,-0.00157,-101.64,,,,,,,
19864.17,-0.00158,-101.53,,,,,,,
19864.64,-0.00163,-103.03,,,,,,,
19865.17,-0.00167,-103.17,,,,,,,
19865.19,-0.00168,-103.24,,,,,,,
19865.71,-0.00173,-103.73,,,,,,,
19866.16,-0.00178,-104.52,,,,,,,
19866.17,-0.00178,-104.48,,,,,,,
19866.68,-0.00183,-107.78,,,,,,,
19867.17,-0.00187,-108.28,,,,,,,
19867.23,-0.00188,-108.42,,,,,,,
19867.68,-0.00193,-107.96,,,,,,,
19868.06,-0.00198,-106.87,,,,,,,
19868.17,-0.00198,-105.89,,,,,,,
19868.72,-0.00203,-105.29,,,,,,,
19869.11,-0.00208,-107.21,,,,,,,
19869.17,-0.00209,-106.9,,,,,,,
19869.64,-0.00213,-104.67,,,,,,,
19870.16,-0.00218,-104.73,,,,,,,
19870.17,-0.00218,-104.73,,,,,,,
19870.65,-0.00223,-106.15,,,,,,,
19871.12,-0.00228,-106.0,,,,,,,
19871.17,-0.00228,-105.88,,,,,,,
19871.73,-0.00233,-106.25,,,,,,,
19872.17,-0.00238,-107.2,,,,,,,
19872.17,-0.00238,-107.17,,,,,,,
19872.74,-0.00243,-106.81,,,,,,,
19873.13,-0.00248,-106.59,,,,,,,
19873.17,-0.00248,-106.45,,,,,,,
19873.63,-0.00253,-103.8,,,,,,,
19874.17,-0.00258,-103.17,,,,,,,
19874.17,-0.00258,-103.17,,,,,,,
19874.68,-0.00263,-104.51,,,,,,,
19875.17,-0.00266,-105.7,,,,,,,
19875.24,-0.00268,-106.45,,,,,,,
19875.76,-0.00273,-107.1,,,,,,,
19876.17,-0.00277,-108.19,,,,,,,
19876.22,-0.00278,-108.41,,,,,,,
19876.68,-0.00283,-107.38,,,,,,,
19877.15,-0.00288,-106.4,,,,,,,
19877.17,-0.00288,-106.37,,,,,,,
19877.77,-0.00293,-106.49,,,,,,,
19878.15,-0.00298,-106.73,,,,,,,
19878.17,-0.00298,-106.63,,,,,,,
19878.66,-0.00303,-106.21,,,,,,,
19879.17,-0.00308,-106.91,,,,,,,
19879.18,-0.00308,-106.92,,,,,,,
19879.56,-0.00313,-106.45,,,,,,,
19880.14,-0.00318,-104.1,,,,,,,
19880.17,-0.00318,-104.08,,,,,,,
19880.67,-0.00323,-103.63,,,,,,,
19881.16,-0.00328,-106.17,,,,,,,
19881.17,-0.00328,-106.17,,,,,,,
19881.76,-0.00333,-104.96,,,,,,,
19882.17,-0.00338,-106.46,,,,,,,
19882.17,-0.00338,-106.44,,,,,,,
19882.68,-0.00343,-105.97,,,,,,,
19883.17,-0.00347,-106.75,,,,,,,
19883.3,-0.00348,-107.97,,,,,,,
19883.58,-0.00353,-108.67,,,,,,,
19884.14,-0.00358,-103.89,,,,,,,
19884.17,-0.00358,-103.83,,,,,,,
19884.67,-0.00363,-102.81,,,,,,,
19885.17,-0.00367,-102.88,,,,,,,
19885.21,-0.00368,-102.95,,,,,,,
19885.73,-0.00373,-105.16,,,,,,,
19886.17,-0.00377,-106.88,,,,,,,
19886.28,-0.00378,-107.31,,,,,,,
19886.74,-0.00383,-108.62,,,,,,,
19887.14,-0.00388,-107.62,,,,,,,
19887.17,-0.00388,-107.44,,,,,,,
19887.69,-0.00393,-107.89,,,,,,,
19888.17,-0.00398,-109.08,,,,,,,
19888.17,-0.00398,-109.08,,,,,,,
19888.66,-0.00403,-106.46,,,,,,,
19889.17,-0.00408,-107.31,,,,,,,
19889.28,-0.00408,-107.55,,,,,,,
19889.68,-0.00413,-106.58,,,,,,,
19890.17,-0.00417,-107.15,,,,,,,
19890.23,-0.00418,-107.14,,,,,,,
19890.6,-0.00423,-107.33,,,,,,,
19891.1,-0.00428,-105.31,,,,,,,
19891.17,-0.00429,-104.9,,,,,,,
19891.67,-0.00433,-103.92,,,,,,,
19892.17,-0.00435,-105.8,,,,,,,
19892.26,-0.00438,-108.36,,,,,,,
19892.75,-0.00443,-109.06,,,,,,,
19893.17,-0.00447,-111.41,,,,,,,
19893.22,-0.00448,-111.56,,,,,,,
19893.81,-0.00453,-111.56,,,,,,,
19894.17,-0.00457,-112.4,,,,,,,
19894.21,-0.00458,-112.45,,,,,,,
19894.71,-0.00463,-111.71,,,,,,,
19895.17,-0.00468,-110.45,,,,,,,
19895.17,-0.00468,-110.45,,,,,,,
19895.67,-0.00473,-109.67,,,,,,,
19896.17,-0.00478,-109.23,,,,,,,
19896.2,-0.00478,-109.28,,,,,,,
19896.62,-0.00483,-107.28,,,,,,,
19897.17,-0.00488,-105.66,,,,,,,
19897.27,-0.00488,-105.8,,,,,,,
19897.71,-0.00493,-107.33,,,,,,,
19898.17,-0.00498,-106.66,,,,,,,
19898.21,-0.00498,-106.56,,,,,,,
19899.17,-0.00495,-92.38,,,,,,,
19899.42,-0.00493,-87.76,,,,,,,
19899.89,-0.00488,-82.55,,,,,,,
19900.17,-0.00487,-78.45,,,,,,,
19900.44,-0.00483,-72.25,,,,,,,
19900.92,-0.00478,-66.58,,,,,,,
19901.17,-0.00476,-64.52,,,,,,,
19901.45,-0.00473,-59.52,,,,,,,
19902.04,-0.00468,-48.82,,,,,,,
19902.17,-0.00467,-46.86,,,,,,,
19902.5,-0.00463,-42.89,,,,,,,
19903.08,-0.00458,-35.53,,,,,,,
19903.17,-0.00457,-34.42,,,,,,,
19903.6,-0.00453,-28.46,,,,,,,
19904.17,-0.00448,-20.1,,,,,,,
19904.17,-0.00448,-20.09,,,,,,,
19904.55,-0.00443,-13.44,,,,,,,
19905.08,-0.00438,-11.12,,,,,,,
19905.17,-0.00437,-10.53,,,,,,,
19905.59,-0.00433,-6.18,,,,,,,
19906.14,-0.00428,-0.21,,,,,,,
19906.17,-0.00428,0.06,,,,,,,
19906.59,-0.00423,3.35,,,,,,,
19907.09,-0.00418,7.01,,,,,,,
19907.17,-0.00417,7.57,,,,,,,
19907.67,-0.00413,11.07,,,,,,,
19908.17,-0.00411,12.8,,,,,,,
19908.43,-0.00408,14.55,,,,,,,
19908.69,-0.00403,17.57,,,,,,,
19909.17,-0.00399,21.4,,,,,,,
19909.43,-0.00398,24.7,,,,,,,
19910.03,-0.00393,31.72,,,,,,,
19910.17,-0.00391,33.74,,,,,,,
19910.34,-0.00388,37.12,,,,,,,
19910.55,-0.00383,40.51,,,,,,,
19910.96,-0.00378,42.11,,,,,,,
19911.17,-0.00376,42.06,,,,,,,
19911.68,-0.00373,47.86,,,,,,,
19912.05,-0.00368,51.63,,,,,,,
19912.17,-0.00366,52.2,,,,,,,
19912.57,-0.00363,53.88,,,,,,,
19913.11,-0.00358,57.39,,,,,,,
19913.17,-0.00357,58.14,,,,,,,
19913.57,-0.00353,62.29,,,,,,,
19914.08,-0.00348,66.34,,,,,,,
19914.17,-0.00347,66.91,,,,,,,
19914.51,-0.00343,67.66,,,,,,,
19915.0,-0.00338,71.34,,,,,,,
19915.17,-0.00336,71.49,,,,,,,
19915.55,-0.00333,73.22,,,,,,,
19916.07,-0.00328,76.92,,,,,,,
19916.17,-0.00327,77.69,,,,,,,
19916.56,-0.00323,79.81,,,,,,,
19917.03,-0.00318,82.93,,,,,,,
19917.17,-0.00317,83.21,,,,,,,
19917.61,-0.00313,85.56,,,,,,,
19918.05,-0.00308,88.85,,,,,,,
19918.17,-0.00306,89.13,,,,,,,
19918.42,-0.00303,88.46,,,,,,,
19918.93,-0.00298,87.4,,,,,,,
19919.17,-0.00296,87.69,,,,,,,
19919.54,-0.00293,90.59,,,,,,,
19919.97,-0.00288,92.41,,,,,,,
19920.17,-0.00285,91.77,,,,,,,
19920.45,-0.00283,90.96,,,,,,,
19921.0,-0.00278,94.51,,,,,,,
19921.17,-0.00275,95.03,,,,,,,
19921.53,-0.00273,96.46,,,,,,,
19921.99,-0.00268,99.58,,,,,,,
19922.17,-0.00265,99.49,,,,,,,
19922.46,-0.00263,99.63,,,,,,,
19922.98,-0.00258,96.5,,,,,,,
19923.17,-0.00255,96.52,,,,,,,
19923.35,-0.00253,95.89,,,,,,,
19923.97,-0.00248,95.51,,,,,,,
19924.17,-0.00245,96.27,,,,,,,
19924.44,-0.00243,97.21,,,,,,,
19924.9,-0.00238,95.77,,,,,,,
19925.17,-0.00234,95.06,,,,,,,
19925.33,-0.00233,94.39,,,,,,,
19925.84,-0.00228,92.17,,,,,,,
19926.17,-0.00223,92.61,,,,,,,
19926.22,-0.00223,92.46,,,,,,,
19926.87,-0.00218,94.3,,,,,,,
19927.17,-0.00215,94.35,,,,,,,
19927.4,-0.00213,96.19,,,,,,,
19927.91,-0.00208,98.98,,,,,,,
19928.17,-0.00206,100.38,,,,,,,
19928.44,-0.00203,101.56,,,,,,,
19928.91,-0.00198,103.51,,,,,,,
19929.17,-0.00194,103.68,,,,,,,
19929.32,-0.00192,103.35,,,,,,,
19929.86,-0.00187,101.78,,,,,,,
19930.17,-0.00184,101.63,,,,,,,
19930.28,-0.00182,101.3,,,,,,,
19930.76,-0.00177,99.23,,,,,,,
19931.17,-0.00174,98.81,,,,,,,
19931.35,-0.00172,98.72,,,,,,,
19931.8,-0.00167,100.29,,,,,,,
19932.17,-0.00163,99.6,,,,,,,
19932.23,-0.00162,99.31,,,,,,,
19932.79,-0.00157,98.16,,,,,,,
19933.17,-0.00154,97.14,,,,,,,
19933.33,-0.00152,97.35,,,,,,,
19933.83,-0.00147,97.16,,,,,,,
19934.17,-0.00145,97.01,,,,,,,
19934.31,-0.00142,98.43,,,,,,,
19934.73,-0.00137,99.83,,,,,,,
19935.13,-0.00132,97.49,,,,,,,
19935.17,-0.00132,96.9,,,,,,,
19935.74,-0.00127,94.72,,,,,,,
19936.17,-0.00123,93.97,,,,,,,
19936.33,-0.00122,94.92,,,,,,,
19936.85,-0.00117,99.05,,,,,,,
19937.17,-0.00113,99.38,,,,,,,
19937.28,-0.00112,99.33,,,,,,,
19937.74,-0.00107,98.13,,,,,,,
19938.17,-0.00104,99.07,,,,,,,
19938.34,-0.00102,99.77,,,,,,,
19938.81,-0.00097,101.75,,,,,,,
19939.17,-0.00093,101.81,,,,,,,
19939.24,-0.00092,101.66,,,,,,,
19939.71,-0.00087,99.31,,,,,,,
19940.17,-0.00083,96.52,,,,,,,
19940.28,-0.00082,96.82,,,,,,,
19940.62,-0.00077,96.41,,,,,,,
19941.17,-0.00073,94.78,,,,,,,
19941.24,-0.00072,94.98,,,,,,,
19941.79,-0.00067,96.31,,,,,,,
19942.17,-0.00063,98.11,,,,,,,
19942.23,-0.00062,98.1,,,,,,,
19942.75,-0.00057,97.77,,,,,,,
19943.17,-0.00054,99.19,,,,,,,
19943.35,-0.00052,100.77,,,,,,,
19943.79,-0.00047,102.94,,,,,,,
19944.1,-0.00042,102.48,,,,,,,
19944.17,-0.00042,101.66,,,,,,,
19944.73,-0.00037,99.04,,,,,,,
19945.15,-0.00032,98.41,,,,,,,
19945.17,-0.00032,98.25,,,,,,,
19945.76,-0.00027,98.65,,,,,,,
19946.17,-0.00023,98.25,,,,,,,
19946.23,-0.00022,98.2,,,,,,,
19946.75,-0.00017,100.24,,,,,,,
19947.17,-0.00013,99.46,,,,,,,
19947.19,-0.00012,99.41,,,,,,,
19947.79,-7e-05,101.3,,,,,,,
19948.17,-3e-05,102.66,,,,,,,
19948.27,-2e-05,102.99,,,,,,,
39749.86,3e-05,95.42,,,,,,,
39750.17,5e-05,96.31,,,,,,,
39750.41,8e-05,98.38,,,,,,,
39750.86,0.00013,99.93,,,,,,,
39751.17,0.00016,98.13,,,,,,,
39751.37,0.00018,97.8,,,,,,,
39751.96,0.00023,99.02,,,,,,,
39752.17,0.00025,99.8,,,,,,,
39752.43,0.00028,100.26,,,,,,,
39752.74,0.00033,100.23,,,,,,,
39753.17,0.00035,98.13,,,,,,,
39753.44,0.00038,99.2,,,,,,,
39753.95,0.00043,100.62,,,,,,,
39754.17,0.00045,101.32,,,,,,,
39754.41,0.00048,101.69,,,,,,,
39754.83,0.00053,101.97,,,,,,,
39755.17,0.00055,100.91,,,,,,,
39755.36,0.00058,101.22,,,,,,,
39755.87,0.00063,102.27,,,,,,,
39756.17,0.00066,101.49,,,,,,,
39756.34,0.00068,100.91,,,,,,,
39756.77,0.00073,99.7,,,,,,,
39757.17,0.00075,97.34,,,,,,,
39757.37,0.00078,97.78,,,,,,,
39757.94,0.00083,99.66,,,,,,,
39758.17,0.00086,100.61,,,,,,,
39758.29,0.00088,100.43,,,,,,,
39758.87,0.00093,98.63,,,,,,,
39759.17,0.00096,98.35,,,,,,,
39759.33,0.00098,98.22,,,,,,,
39759.93,0.00103,97.52,,,,,,,
39760.17,0.00106,99.51,,,,,,,
39760.32,0.00108,99.3,,,,,,,
39760.84,0.00113,96.66,,,,,,,
39761.17,0.00116,96.51,,,,,,,
39761.37,0.00118,96.94,,,,,,,
39761.77,0.00123,95.36,,,,,,,
39762.17,0.00126,95.07,,,,,,,
39762.39,0.00128,95.34,,,,,,,
39762.89,0.00133,94.92,,,,,,,
39763.17,0.00136,96.11,,,,,,,
39763.41,0.00138,98.78,,,,,,,
39763.87,0.00143,99.76,,,,,,,
39764.17,0.00146,100.47,,,,,,,
39764.4,0.00148,100.18,,,,,,,
39764.79,0.00153,100.11,,,,,,,
39765.17,0.00156,98.26,,,,,,,
39765.27,0.00158,98.22,,,,,,,
39765.77,0.00163,94.87,,,,,,,
39766.17,0.00167,93.4,,,,,,,
39766.27,0.00168,92.74,,,,,,,
39766.68,0.00173,90.75,,,,,,,
39767.17,0.00176,87.72,,,,,,,
39767.28,0.00178,87.85,,,,,,,
39767.85,0.00183,87.74,,,,,,,
39768.17,0.00186,88.7,,,,,,,
39768.3,0.00188,89.24,,,,,,,
39769.05,0.00193,96.75,,,,,,,
39769.17,0.00195,98.72,,,,,,,
39769.41,0.00198,100.07,,,,,,,
39769.85,0.00203,102.81,,,,,,,
39770.17,0.00205,101.59,,,,,,,
39770.42,0.00208,101.92,,,,,,,
39770.94,0.00213,104.52,,,,,,,
39771.17,0.00216,104.68,,,,,,,
39771.29,0.00218,103.87,,,,,,,
39771.76,0.00223,102.09,,,,,,,
39772.17,0.00227,98.87,,,,,,,
39772.26,0.00228,98.0,,,,,,,
39772.97,0.00233,98.76,,,,,,,
39773.17,0.00235,100.97,,,,,,,
39773.38,0.00238,101.62,,,,,,,
39773.97,0.00243,103.01,,,,,,,
39774.17,0.00247,103.47,,,,,,,
39774.51,0.00248,104.54,,,,,,,
39774.83,0.00253,106.69,,,,,,,
39775.17,0.00256,105.58,,,,,,,
39775.36,0.00258,105.69,,,,,,,
39775.94,0.00263,105.18,,,,,,,
39776.17,0.00265,105.87,,,,,,,
39776.44,0.00268,106.83,,,,,,,
39776.88,0.00273,105.71,,,,,,,
39777.17,0.00277,103.57,,,,,,,
39777.21,0.00278,103.14,,,,,,,
39777.85,0.00283,100.01,,,,,,,
39778.17,0.00286,100.45,,,,,,,
39778.4,0.00288,100.8,,,,,,,
39778.88,0.00293,100.88,,,,,,,
39779.17,0.00295,101.11,,,,,,,
39779.34,0.00298,101.93,,,,,,,
39779.89,0.00303,98.4,,,,,,,
39780.17,0.00306,97.94,,,,,,,
39780.4,0.00308,98.1,,,,,,,
39780.93,0.00313,99.87,,,,,,,
39781.17,0.00315,101.51,,,,,,,
39781.38,0.00318,102.76,,,,,,,
39781.91,0.00323,104.43,,,,,,,
39782.17,0.00326,104.76,,,,,,,
39782.43,0.00328,105.04,,,,,,,
39782.96,0.00333,105.33,,,,,,,
39783.17,0.00336,105.31,,,,,,,
39783.35,0.00338,104.26,,,,,,,
39783.85,0.00343,102.22,,,,,,,
39784.17,0.00346,101.16,,,,,,,
39784.36,0.00348,100.75,,,,,,,
39784.94,0.00353,101.31,,,,,,,
39785.17,0.00356,102.19,,,,,,,
39785.34,0.00358,101.83,,,,,,,
39785.72,0.00363,99.97,,,,,,,
39786.17,0.00366,96.81,,,,,,,
39786.33,0.00368,96.77,,,,,,,
39786.79,0.00373,94.54,,,,,,,
39787.17,0.00376,94.19,,,,,,,
39787.38,0.00378,95.11,,,,,,,
39787.85,0.00383,94.99,,,,,,,
39788.17,0.00385,96.41,,,,,,,
39788.37,0.00388,98.23,,,,,,,
39788.88,0.00393,101.24,,,,,,,
39789.17,0.00396,100.93,,,,,,,
39789.33,0.00398,100.62,,,,,,,
39789.81,0.00403,98.33,,,,,,,
39790.17,0.00406,96.9,,,,,,,
39790.39,0.00408,97.63,,,,,,,
39790.95,0.00413,99.16,,,,,,,
39791.17,0.00415,100.36,,,,,,,
39791.4,0.00418,101.39,,,,,,,
39791.92,0.00423,101.28,,,,,,,
39792.17,0.00427,100.74,,,,,,,
39792.35,0.00428,99.94,,,,,,,
39792.88,0.00433,99.85,,,,,,,
39793.17,0.00436,100.15,,,,,,,
39793.44,0.00438,101.59,,,,,,,
39793.92,0.00443,101.88,,,,,,,
39794.17,0.00446,102.01,,,,,,,
39794.47,0.00448,103.31,,,,,,,
39794.78,0.00453,103.78,,,,,,,
39795.17,0.00456,99.74,,,,,,,
39795.38,0.00458,100.06,,,,,,,
39795.78,0.00463,98.01,,,,,,,
39796.17,0.00467,95.48,,,,,,,
39796.6,0.00468,97.57,,,,,,,
39796.87,0.00473,101.82,,,,,,,
39797.17,0.00476,100.2,,,,,,,
39797.48,0.00478,100.52,,,,,,,
39798.02,0.00483,104.27,,,,,,,
39798.17,0.00485,105.59,,,,,,,
39798.46,0.00488,105.82,,,,,,,
39798.83,0.00493,105.81,,,,,,,
39799.17,0.00496,103.03,,,,,,,
39799.39,0.00498,102.63,,,,,,,
39800.17,0.00497,85.51,,,,,,,
39800.55,0.00493,80.01,,,,,,,
39800.93,0.00488,76.27,,,,,,,
39801.17,0.00487,73.68,,,,,,,
39801.57,0.00483,68.36,,,,,,,
39802.06,0.00478,64.15,,,,,,,
39802.17,0.00477,62.77,,,,,,,
39802.67,0.00473,55.71,,,,,,,
39803.15,0.00468,48.87,,,,,,,
39803.17,0.00468,48.52,,,,,,,
39803.61,0.00463,41.47,,,,,,,
39804.17,0.00459,35.86,,,,,,,
39804.26,0.00458,34.4,,,,,,,
39804.73,0.00453,25.32,,,,,,,
39805.17,0.0045,18.45,,,,,,,
39805.27,0.00448,16.74,,,,,,,
39805.67,0.00443,13.18,,,,,,,
39806.11,0.00438,12.18,,,,,,,
39806.17,0.00437,12.03,,,,,,,
39806.86,0.00433,6.71,,,,,,,
39807.17,0.00429,1.09,,,,,,,
39807.26,0.00428,0.66,,,,,,,
39807.94,0.00423,-0.07,,,,,,,
39808.17,0.0042,-0.94,,,,,,,
39808.3,0.00418,-0.72,,,,,,,
39808.73,0.00413,0.0,,,,,,,
39809.17,0.0041,-1.85,,,,,,,
39809.35,0.00408,-4.13,,,,,,,
39809.89,0.00403,-8.15,,,,,,,
39810.17,0.004,-9.87,,,,,,,
39810.27,0.00398,-10.8,,,,,,,
39810.61,0.00393,-15.26,,,,,,,
39811.07,0.00388,-17.15,,,,,,,
39811.17,0.00387,-17.54,,,,,,,
39811.55,0.00383,-18.76,,,,,,,
39812.11,0.00378,-20.86,,,,,,,
39812.17,0.00378,-21.4,,,,,,,
39812.64,0.00373,-24.96,,,,,,,
39813.15,0.00368,-29.32,,,,,,,
39813.17,0.00368,-29.5,,,,,,,
39813.85,0.00363,-37.6,,,,,,,
39814.17,0.0036,-42.89,,,,,,,
39814.44,0.00358,-49.22,,,,,,,
39814.74,0.00353,-54.81,,,,,,,
39815.0,0.00348,-55.34,,,,,,,
39815.17,0.00346,-53.3,,,,,,,
39815.56,0.00343,-51.24,,,,,,,
39816.17,0.0034,-52.81,,,,,,,
39816.27,0.00338,-55.18,,,,,,,
39816.65,0.00333,-57.18,,,,,,,
39817.09,0.00328,-56.56,,,,,,,
39817.17,0.00327,-56.68,,,,,,,
39817.69,0.00323,-59.96,,,,,,,
39818.17,0.0032,-68.38,,,,,,,
39818.25,0.00318,-69.82,,,,,,,
39818.69,0.00313,-72.74,,,,,,,
39819.09,0.00308,-73.79,,,,,,,
39819.17,0.00307,-73.64,,,,,,,
39819.68,0.00303,-74.88,,,,,,,
39820.15,0.00298,-77.03,,,,,,,
39820.17,0.00298,-77.14,,,,,,,
39820.57,0.00293,-77.73,,,,,,,
39821.17,0.00288,-79.01,,,,,,,
39821.18,0.00288,-79.07,,,,,,,
39821.65,0.00283,-81.03,,,,,,,
39822.08,0.00278,-83.33,,,,,,,
39822.17,0.00277,-83.21,,,,,,,
39822.67,0.00273,-83.19,,,,,,,
39823.07,0.00268,-85.53,,,,,,,
39823.17,0.00267,-85.38,,,,,,,
39823.62,0.00263,-86.21,,,,,,,
39824.1,0.00258,-87.51,,,,,,,
39824.17,0.00257,-87.67,,,,,,,
39824.73,0.00253,-90.72,,,,,,,
39825.15,0.00248,-92.86,,,,,,,
39825.17,0.00248,-93.07,,,,,,,
39825.65,0.00243,-94.97,,,,,,,
39826.11,0.00238,-96.37,,,,,,,
39826.17,0.00238,-96.63,,,,,,,
39826.5,0.00233,-96.66,,,,,,,
39826.95,0.00228,-94.36,,,,,,,
39827.17,0.00225,-92.68,,,,,,,
39827.38,0.00223,-91.09,,,,,,,
39828.06,0.00218,-90.79,,,,,,,
39828.17,0.00217,-91.53,,,,,,,
39828.55,0.00213,-94.43,,,,,,,
39829.0,0.00208,-95.08,,,,,,,
39829.17,0.00207,-95.08,,,,,,,
39829.52,0.00203,-96.36,,,,,,,
39830.02,0.00198,-96.91,,,,,,,
39830.17,0.00196,-97.05,,,,,,,
39830.47,0.00193,-96.92,,,,,,,
39830.97,0.00188,-97.06,,,,,,,
39831.17,0.00186,-96.95,,,,,,,
39831.45,0.00183,-97.35,,,,,,,
39831.89,0.00178,-96.02,,,,,,,
39832.17,0.00176,-94.8,,,,,,,
39832.42,0.00173,-94.38,,,,,,,
39832.92,0.00168,-93.15,,,,,,,
39833.17,0.00166,-93.69,,,,,,,
39833.48,0.00163,-95.1,,,,,,,
39834.0,0.00158,-97.41,,,,,,,
39834.17,0.00156,-98.51,,,,,,,
39834.41,0.00153,-99.48,,,,,,,
39834.97,0.00148,-100.4,,,,,,,
39835.17,0.00146,-101.05,,,,,,,
39835.47,0.00143,-100.75,,,,,,,
39836.0,0.00138,-100.95,,,,,,,
39836.17,0.00135,-101.11,,,,,,,
39836.45,0.00133,-100.56,,,,,,,
39836.92,0.00128,-100.7,,,,,,,
39837.17,0.00126,-100.57,,,,,,,
39837.42,0.00123,-101.11,,,,,,,
39837.85,0.00118,-98.65,,,,,,,
39838.17,0.00114,-96.99,,,,,,,
39838.42,0.00113,-95.63,,,,,,,
39838.91,0.00108,-95.99,,,,,,,
39839.17,0.00106,-96.37,,,,,,,
39839.43,0.00103,-97.62,,,,,,,
39840.08,0.00098,-100.5,,,,,,,
39840.17,0.00096,-101.93,,,,,,,
39840.44,0.00093,-102.03,,,,,,,
39840.81,0.00088,-101.91,,,,,,,
39841.17,0.00084,-98.35,,,,,,,
39841.46,0.00083,-98.01,,,,,,,
39841.93,0.00078,-100.48,,,,,,,
39842.17,0.00075,-100.71,,,,,,,
39842.35,0.00073,-100.75,,,,,,,
39842.86,0.00068,-98.32,,,,,,,
39843.17,0.00064,-97.94,,,,,,,
39843.34,0.00063,-97.53,,,,,,,
39843.82,0.00058,-96.74,,,,,,,
39844.17,0.00054,-95.65,,,,,,,
39844.3,0.00053,-95.21,,,,,,,
39844.8,0.00048,-94.68,,,,,,,
39845.17,0.00045,-94.17,,,,,,,
39845.37,0.00043,-95.49,,,,,,,
39845.88,0.00038,-95.94,,,,,,,
39846.17,0.00035,-96.42,,,,,,,
39846.38,0.00033,-97.25,,,,,,,
39846.91,0.00028,-97.01,,,,,,,
39847.17,0.00025,-98.19,,,,,,,
39847.42,0.00023,-98.76,,,,,,,
39847.83,0.00018,-99.58,,,,,,,
39848.17,0.00014,-97.86,,,,,,,
39848.35,0.00013,-98.05,,,,,,,
39848.84,8e-05,-96.93,,,,,,,
39849.17,5e-05,-97.92,,,,,,,
39849.36,3e-05,-98.77,,,,,,,
39849.96,-2e-05,-99.6,,,,,,,
39850.17,-6e-05,-100.51,,,,,,,
39850.29,-7e-05,-100.15,,,,,,,
39850.91,-0.00012,-99.58,,,,,,,
39851.17,-0.00016,-100.85,,,,,,,
39851.29,-0.00017,-100.71,,,,,,,
39851.83,-0.00022,-97.43,,,,,,,
39852.17,-0.00025,-97.77,,,,,,,
39852.37,-0.00027,-98.76,,,,,,,
39852.82,-0.00032,-98.95,,,,,,,
39853.17,-0.00035,-99.25,,,,,,,
39853.4,-0.00037,-101.59,,,,,,,
39853.77,-0.00042,-100.09,,,,,,,
39854.17,-0.00046,-97.68,,,,,,,
39854.27,-0.00047,-97.34,,,,,,,
39854.89,-0.00052,-98.64,,,,,,,
39855.17,-0.00055,-99.52,,,,,,,
39855.4,-0.00057,-100.76,,,,,,,
39855.93,-0.00062,-103.35,,,,,,,
39856.17,-0.00065,-105.19,,,,,,,
39856.37,-0.00067,-105.69,,,,,,,
39856.73,-0.00072,-104.3,,,,,,,
39857.17,-0.00076,-102.92,,,,,,,
39857.3,-0.00077,-102.71,,,,,,,
39857.92,-0.00082,-103.94,,,,,,,
39858.17,-0.00085,-103.85,,,,,,,
39858.33,-0.00087,-103.95,,,,,,,
39858.69,-0.00092,-102.08,,,,,,,
39859.17,-0.00097,-98.72,,,,,,,
39859.28,-0.00097,-98.29,,,,,,,
39859.79,-0.00102,-99.08,,,,,,,
39860.17,-0.00105,-98.64,,,,,,,
39860.43,-0.00107,-100.61,,,,,,,
39860.73,-0.00112,-101.36,,,,,,,
39861.17,-0.00116,-98.31,,,,,,,
39861.29,-0.00117,-97.96,,,,,,,
39861.86,-0.00122,-99.05,,,,,,,
39862.17,-0.00126,-99.88,,,,,,,
39862.28,-0.00127,-99.74,,,,,,,
39862.72,-0.00132,-96.49,,,,,,,
39863.17,-0.00136,-95.6,,,,,,,
39863.3,-0.00138,-96.14,,,,,,,
39863.92,-0.00143,-96.11,,,,,,,
39864.17,-0.00145,-98.43,,,,,,,
39864.41,-0.00148,-100.5,,,,,,,
39864.81,-0.00153,-101.41,,,,,,,
39865.17,-0.00157,-99.32,,,,,,,
39865.32,-0.00158,-98.74,,,,,,,
39865.82,-0.00163,-99.94,,,,,,,
39866.17,-0.00165,-98.95,,,,,,,
39866.38,-0.00168,-99.73,,,,,,,
39866.96,-0.00173,-104.04,,,,,,,
39867.17,-0.00175,-105.01,,,,,,,
39867.45,-0.00178,-105.66,,,,,,,
39867.98,-0.00183,-108.15,,,,,,,
39868.17,-0.00185,-109.29,,,,,,,
39868.3,-0.00188,-109.0,,,,,,,
39868.88,-0.00193,-105.87,,,,,,,
39869.17,-0.00196,-105.63,,,,,,,
39869.33,-0.00198,-105.38,,,,,,,
39869.88,-0.00203,-104.71,,,,,,,
39870.17,-0.00206,-104.65,,,,,,,
39870.31,-0.00208,-104.14,,,,,,,
39870.78,-0.00213,-102.58,,,,,,,
39871.17,-0.00215,-101.69,,,,,,,
39871.4,-0.00218,-102.59,,,,,,,
39871.84,-0.00223,-104.93,,,,,,,
39872.17,-0.00226,-104.16,,,,,,,
39872.32,-0.00228,-103.92,,,,,,,
39872.76,-0.00233,-101.74,,,,,,,
39873.17,-0.00235,-102.69,,,,,,,
39873.32,-0.00238,-104.08,,,,,,,
39873.96,-0.00243,-104.78,,,,,,,
39874.17,-0.00246,-104.92,,,,,,,
39874.27,-0.00248,-104.51,,,,,,,
39874.78,-0.00253,-98.67,,,,,,,
39875.17,-0.00256,-99.4,,,,,,,
39875.46,-0.00258,-100.95,,,,,,,
39876.04,-0.00263,-109.5,,,,,,,
39876.17,-0.00265,-111.11,,,,,,,
39876.37,-0.00268,-111.03,,,,,,,
39876.86,-0.00273,-109.51,,,,,,,
39877.17,-0.00278,-107.88,,,,,,,
39877.18,-0.00278,-107.76,,,,,,,
39877.79,-0.00283,-102.0,,,,,,,
39878.17,-0.00286,-101.32,,,,,,,
39878.33,-0.00288,-101.53,,,,,,,
39878.79,-0.00293,-101.06,,,,,,,
39879.17,-0.00297,-99.62,,,,,,,
39879.31,-0.00298,-99.21,,,,,,,
39879.81,-0.00303,-99.17,,,,,,,
39880.17,-0.00306,-98.57,,,,,,,
39880.33,-0.00308,-98.49,,,,,,,
39880.94,-0.00313,-103.01,,,,,,,
39881.17,-0.00315,-104.63,,,,,,,
39881.46,-0.00318,-109.36,,,,,,,
39882.0,-0.00323,-109.83,,,,,,,
39882.17,-0.00325,-111.41,,,,,,,
39882.39,-0.00328,-113.23,,,,,,,
39882.76,-0.00333,-110.46,,,,,,,
39883.17,-0.00338,-105.55,,,,,,,
39883.22,-0.00338,-104.85,,,,,,,
39883.64,-0.00343,-100.57,,,,,,,
39884.17,-0.00346,-99.14,,,,,,,
39884.33,-0.00348,-98.92,,,,,,,
39884.8,-0.00353,-99.56,,,,,,,
39885.17,-0.00357,-99.18,,,,,,,
39885.34,-0.00358,-98.95,,,,,,,
39885.71,-0.00363,-97.74,,,,,,,
39886.17,-0.00366,-96.8,,,,,,,
39886.34,-0.00368,-97.24,,,,,,,
39886.8,-0.00373,-97.56,,,,,,,
39887.17,-0.00376,-97.56,,,,,,,
39887.33,-0.00378,-97.89,,,,,,,
39887.86,-0.00383,-98.8,,,,,,,
39888.17,-0.00386,-99.0,,,,,,,
39888.37,-0.00388,-99.13,,,,,,,
39888.91,-0.00393,-100.12,,,,,,,
39889.17,-0.00396,-100.82,,,,,,,
39889.44,-0.00398,-101.24,,,,,,,
39889.86,-0.00403,-103.72,,,,,,,
39890.17,-0.00406,-103.07,,,,,,,
39890.39,-0.00408,-103.01,,,,,,,
39890.9,-0.00413,-103.87,,,,,,,
39891.17,-0.00415,-104.74,,,,,,,
39891.38,-0.00418,-106.09,,,,,,,
39891.88,-0.00423,-105.4,,,,,,,
39892.17,-0.00426,-105.37,,,,,,,
39892.43,-0.00428,-106.42,,,,,,,
39892.97,-0.00433,-107.87,,,,,,,
39893.17,-0.00437,-107.74,,,,,,,
39893.37,-0.00438,-106.49,,,,,,,
39893.88,-0.00443,-105.99,,,,,,,
39894.17,-0.00446,-105.13,,,,,,,
39894.39,-0.00448,-105.52,,,,,,,
39894.97,-0.00453,-106.89,,,,,,,
39895.17,-0.00455,-107.54,,,,,,,
39895.44,-0.00458,-107.96,,,,,,,
39895.9,-0.00463,-109.71,,,,,,,
39896.17,-0.00467,-108.95,,,,,,,
39896.37,-0.00468,-107.88,,,,,,,
39896.84,-0.00473,-106.69,,,,,,,
39897.17,-0.00476,-105.36,,,,,,,
39897.33,-0.00478,-105.26,,,,,,,
39897.88,-0.00483,-102.8,,,,,,,
39898.17,-0.00486,-103.41,,,,,,,
39898.5,-0.00488,-103.52,,,,,,,
39899.01,-0.00493,-109.88,,,,,,,
39899.17,-0.00495,-110.93,,,,,,,
39899.47,-0.00498,-113.21,,,,,,,
39900.17,-0.00497,-102.29,,,,,,,
39900.45,-0.00493,-96.46,,,,,,,
39901.09,-0.00488,-85.37,,,,,,,
39901.17,-0.00487,-83.66,,,,,,,
39901.57,-0.00483,-77.03,,,,,,,
39902.05,-0.00478,-71.32,,,,,,,
39902.17,-0.00477,-70.03,,,,,,,
39902.58,-0.00473,-65.08,,,,,,,
39903.03,-0.00468,-58.8,,,,,,,
39903.17,-0.00467,-58.03,,,,,,,
39903.64,-0.00463,-53.96,,,,,,,
39904.17,-0.00458,-48.14,,,,,,,
39904.17,-0.00458,-48.11,,,,,,,
39904.63,-0.00453,-42.58,,,,,,,
39905.17,-0.00448,-38.46,,,,,,,
39905.21,-0.00448,-38.05,,,,,,,
39905.77,-0.00443,-29.03,,,,,,,
39906.17,-0.00439,-23.73,,,,,,,
39906.25,-0.00438,-22.77,,,,,,,
39906.81,-0.00433,-14.94,,,,,,,
39907.17,-0.00429,-9.24,,,,,,,
39907.35,-0.00428,-6.83,,,,,,,
39907.81,-0.00423,0.23,,,,,,,
39908.17,-0.00419,3.26,,,,,,,
39908.33,-0.00418,4.51,,,,,,,
39908.84,-0.00413,11.41,,,,,,,
39909.17,-0.00412,12.43,,,,,,,
39909.58,-0.00408,14.32,,,,,,,
39909.94,-0.00403,18.74,,,,,,,
39910.17,-0.00401,19.95,,,,,,,
39910.45,-0.00398,21.3,,,,,,,
39911.05,-0.00393,25.54,,,,,,,
39911.17,-0.00391,26.26,,,,,,,
39911.6,-0.00388,31.47,,,,,,,
39911.83,-0.00383,37.03,,,,,,,
39912.17,-0.00379,39.24,,,,,,,
39912.24,-0.00378,39.76,,,,,,,
39912.76,-0.00373,43.98,,,,,,,
39913.17,-0.00369,48.19,,,,,,,
39913.26,-0.00368,48.57,,,,,,,
39913.76,-0.00363,51.68,,,,,,,
39914.17,-0.00359,55.09,,,,,,,
39914.26,-0.00358,55.56,,,,,,,
39914.76,-0.00353,60.15,,,,,,,
39915.17,-0.00349,61.74,,,,,,,
39915.23,-0.00348,62.17,,,,,,,
39915.74,-0.00343,63.39,,,,,,,
39916.17,-0.00339,65.08,,,,,,,
39916.26,-0.00338,65.84,,,,,,,
39916.69,-0.00333,67.19,,,,,,,
39917.17,-0.00328,67.98,,,,,,,
39917.21,-0.00328,68.13,,,,,,,
39917.76,-0.00323,69.14,,,,,,,
39918.17,-0.00318,71.69,,,,,,,
39918.21,-0.00318,71.83,,,,,,,
39918.78,-0.00313,76.93,,,,,,,
39919.17,-0.00308,79.37,,,,,,,
39919.27,-0.00308,79.81,,,,,,,
39919.75,-0.00303,84.85,,,,,,,
39920.17,-0.00299,85.07,,,,,,,
39920.26,-0.00298,85.75,,,,,,,
39920.67,-0.00293,88.32,,,,,,,
39921.17,-0.00288,87.86,,,,,,,
39921.18,-0.00288,87.88,,,,,,,
39921.62,-0.00283,89.08,,,,,,,
39922.07,-0.00278,86.59,,,,,,,
39922.17,-0.00277,86.03,,,,,,,
39922.6,-0.00273,84.14,,,,,,,
39923.15,-0.00268,86.77,,,,,,,
39923.17,-0.00267,86.9,,,,,,,
39923.59,-0.00263,87.73,,,,,,,
39924.15,-0.00258,88.44,,,,,,,
39924.17,-0.00257,88.6,,,,,,,
39924.6,-0.00253,88.89,,,,,,,
39925.11,-0.00248,89.32,,,,,,,
39925.17,-0.00247,89.51,,,,,,,
39925.6,-0.00243,91.71,,,,,,,
39926.1,-0.00238,92.44,,,,,,,
39926.17,-0.00236,92.68,,,,,,,
39926.53,-0.00233,91.31,,,,,,,
39927.07,-0.00228,91.46,,,,,,,
39927.17,-0.00227,91.58,,,,,,,
39927.6,-0.00223,92.43,,,,,,,
39928.06,-0.00218,93.68,,,,,,,
39928.17,-0.00217,93.9,,,,,,,
39928.56,-0.00213,97.36,,,,,,,
39928.99,-0.00208,97.28,,,,,,,
39929.17,-0.00206,96.56,,,,,,,
39929.45,-0.00203,95.38,,,,,,,
39930.08,-0.00198,95.36,,,,,,,
39930.17,-0.00197,96.0,,,,,,,
39930.59,-0.00193,97.93,,,,,,,
39931.01,-0.00188,99.38,,,,,,,
39931.17,-0.00186,99.36,,,,,,,
39931.58,-0.00183,100.17,,,,,,,
39931.97,-0.00178,101.39,,,,,,,
39932.17,-0.00176,100.52,,,,,,,
39932.46,-0.00173,100.21,,,,,,,
39932.91,-0.00167,97.67,,,,,,,
39933.17,-0.00164,95.7,,,,,,,
39933.38,-0.00162,93.8,,,,,,,
39933.87,-0.00157,92.58,,,,,,,
39934.17,-0.00156,91.03,,,,,,,
39934.45,-0.00152,91.75,,,,,,,
39934.93,-0.00147,94.23,,,,,,,
39935.17,-0.00146,94.63,,,,,,,
39935.47,-0.00142,96.36,,,,,,,
39935.91,-0.00137,94.44,,,,,,,
39936.17,-0.00134,93.47,,,,,,,
39936.59,-0.00132,93.3,,,,,,,
39936.97,-0.00127,96.69,,,,,,,
39937.17,-0.00126,97.26,,,,,,,
39937.5,-0.00122,99.99,,,,,,,
39937.89,-0.00117,100.07,,,,,,,
39938.17,-0.00115,98.76,,,,,,,
39938.4,-0.00112,98.47,,,,,,,
39938.83,-0.00107,95.41,,,,,,,
39939.17,-0.00103,92.38,,,,,,,
39939.21,-0.00102,91.88,,,,,,,
39939.85,-0.00097,85.51,,,,,,,
39940.17,-0.00095,86.14,,,,,,,
39940.4,-0.00092,87.44,,,,,,,
39940.97,-0.00087,90.16,,,,,,,
39941.17,-0.00085,91.49,,,,,,,
39941.49,-0.00082,92.81,,,,,,,
39941.96,-0.00077,96.83,,,,,,,
39942.17,-0.00075,97.79,,,,,,,
39942.39,-0.00072,98.64,,,,,,,
39942.87,-0.00067,98.68,,,,,,,
39943.17,-0.00065,97.56,,,,,,,
39943.44,-0.00062,98.57,,,,,,,
39943.97,-0.00057,100.17,,,,,,,
39944.17,-0.00055,101.02,,,,,,,
39944.42,-0.00052,100.72,,,,,,,
39945.02,-0.00047,100.72,,,,,,,
39945.17,-0.00045,102.01,,,,,,,
39945.41,-0.00042,102.57,,,,,,,
39945.87,-0.00037,100.1,,,,,,,
39946.17,-0.00034,99.07,,,,,,,
39946.34,-0.00032,97.92,,,,,,,
39946.89,-0.00027,96.09,,,,,,,
39947.17,-0.00024,95.67,,,,,,,
39947.49,-0.00022,95.14,,,,,,,
39947.86,-0.00017,97.21,,,,,,,
39948.17,-0.00015,96.59,,,,,,,
39948.4,-0.00012,97.56,,,,,,,
39949.01,-7e-05,101.09,,,,,,,
39949.17,-4e-05,102.07,,,,,,,
39949.29,-2e-05,101.56,,,,,,,
69802.13,0.00494,84.5,,,,,,,
69802.17,0.00494,83.84,,,,,,,
69802.71,0.00489,74.81,,,,,,,
69803.13,0.00484,67.72,,,,,,,
69803.17,0.00484,67.36,,,,,,,
69803.7,0.00479,62.66,,,,,,,
69804.16,0.00474,57.36,,,,,,,
69804.17,0.00474,57.27,,,,,,,
69804.69,0.00469,52.16,,,,,,,
69805.17,0.00465,48.61,,,,,,,
69805.23,0.00464,47.96,,,,,,,
69805.71,0.00459,44.1,,,,,,,
69806.17,0.00455,40.12,,,,,,,
69806.27,0.00454,38.91,,,,,,,
69806.76,0.00449,31.92,,,,,,,
69807.17,0.00446,28.26,,,,,,,
69807.3,0.00444,27.14,,,,,,,
69807.85,0.00439,20.99,,,,,,,
69808.17,0.00436,17.83,,,,,,,
69808.35,0.00434,15.73,,,,,,,
69808.8,0.00429,11.84,,,,,,,
69809.17,0.00426,9.94,,,,,,,
69809.3,0.00424,8.84,,,,,,,
69809.92,0.00419,4.05,,,,,,,
69810.17,0.00417,1.47,,,,,,,
69810.64,0.00414,0.81,,,,,,,
69811.17,0.00411,-3.99,,,,,,,
69811.4,0.00409,-7.48,,,,,,,
69811.76,0.00404,-13.19,,,,,,,
69812.17,0.004,-16.69,,,,,,,
69812.26,0.00399,-18.26,,,,,,,
69812.47,0.00394,-24.3,,,,,,,
69812.83,0.00389,-28.31,,,,,,,
69813.17,0.00387,-31.49,,,,,,,
69813.32,0.00384,-33.21,,,,,,,
69813.79,0.00379,-34.97,,,,,,,
69814.17,0.00375,-36.14,,,,,,,
69814.32,0.00374,-36.67,,,,,,,
69814.8,0.00369,-41.21,,,,,,,
69815.17,0.00365,-42.54,,,,,,,
69815.29,0.00364,-42.59,,,,,,,
69815.78,0.00359,-42.5,,,,,,,
69816.17,0.00355,-43.7,,,,,,,
69816.25,0.00354,-43.91,,,,,,,
69816.9,0.00349,-49.58,,,,,,,
69817.17,0.00347,-53.14,,,,,,,
69817.47,0.00344,-57.58,,,,,,,
69817.83,0.00339,-61.83,,,,,,,
69818.17,0.00336,-63.86,,,,,,,
69818.28,0.00334,-64.38,,,,,,,
69818.75,0.00329,-63.72,,,,,,,
69819.17,0.00325,-63.23,,,,,,,
69819.28,0.00324,-63.68,,,,,,,
69819.9,0.00319,-69.03,,,,,,,
69820.17,0.00314,-70.95,,,,,,,
69820.19,0.00314,-70.91,,,,,,,
69820.76,0.00309,-67.75,,,,,,,
69821.17,0.00305,-70.19,,,,,,,
69821.27,0.00304,-70.64,,,,,,,
69821.76,0.00299,-71.62,,,,,,,
69822.17,0.00296,-74.9,,,,,,,
69822.3,0.00294,-76.02,,,,,,,
69822.65,0.00289,-74.91,,,,,,,
69823.17,0.00286,-75.87,,,,,,,
69823.31,0.00284,-77.84,,,,,,,
69823.77,0.00279,-79.73,,,,,,,
69824.17,0.00276,-80.81,,,,,,,
69824.28,0.00274,-81.57,,,,,,,
69824.8,0.00269,-84.72,,,,,,,
69825.17,0.00265,-87.67,,,,,,,
69825.3,0.00264,-88.23,,,,,,,
69825.75,0.00259,-89.47,,,,,,,
69826.17,0.00255,-88.54,,,,,,,
69826.26,0.00254,-88.54,,,,,,,
69826.72,0.00249,-88.23,,,,,,,
69827.17,0.00245,-88.11,,,,,,,
69827.24,0.00244,-88.08,,,,,,,
69827.66,0.00239,-87.88,,,,,,,
69828.17,0.00234,-86.74,,,,,,,
69828.2,0.00234,-86.69,,,,,,,
69828.64,0.00229,-88.32,,,,,,,
69829.15,0.00224,-87.34,,,,,,,
69829.17,0.00224,-87.33,,,,,,,
69829.63,0.00219,-89.22,,,,,,,
69830.16,0.00214,-86.89,,,,,,,
69830.17,0.00214,-86.92,,,,,,,
69830.69,0.00209,-86.76,,,,,,,
69831.17,0.00204,-88.25,,,,,,,
69831.17,0.00204,-88.29,,,,,,,
69831.58,0.00199,-89.12,,,,,,,
69832.1,0.00194,-89.19,,,,,,,
69832.17,0.00193,-89.06,,,,,,,
69832.58,0.00189,-87.8,,,,,,,
69833.12,0.00184,-87.31,,,,,,,
69833.17,0.00183,-87.38,,,,,,,
69833.56,0.00179,-87.13,,,,,,,
69834.08,0.00174,-85.65,,,,,,,
69834.17,0.00174,-85.82,,,,,,,
69834.55,0.00169,-86.62,,,,,,,
69835.02,0.00164,-87.34,,,,,,,
69835.17,0.00163,-86.93,,,,,,,
69835.59,0.00159,-87.16,,,,,,,
69836.04,0.00154,-87.74,,,,,,,
69836.17,0.00153,-87.37,,,,,,,
69836.62,0.00149,-87.59,,,,,,,
69837.1,0.00144,-89.36,,,,,,,
69837.17,0.00143,-89.46,,,,,,,
69837.59,0.00139,-90.11,,,,,,,
69838.17,0.00134,-93.78,,,,,,,
69838.2,0.00134,-94.21,,,,,,,
69838.69,0.00129,-99.21,,,,,,,
69839.08,0.00124,-99.61,,,,,,,
69839.17,0.00122,-99.28,,,,,,,
69839.46,0.00119,-97.23,,,,,,,
69840.04,0.00114,-93.09,,,,,,,
69840.17,0.00112,-92.81,,,,,,,
69840.43,0.00109,-91.55,,,,,,,
69841.03,0.00104,-89.64,,,,,,,
69841.17,0.00103,-89.6,,,,,,,
69841.55,0.00099,-90.03,,,,,,,
69842.15,0.00094,-93.7,,,,,,,
69842.17,0.00094,-93.84,,,,,,,
69842.65,0.00089,-96.93,,,,,,,
69843.12,0.00084,-97.31,,,,,,,
69843.17,0.00083,-97.53,,,,,,,
69843.55,0.00079,-97.43,,,,,,,
69844.06,0.00074,-96.99,,,,,,,
69844.17,0.00073,-96.99,,,,,,,
69844.53,0.00069,-97.57,,,,,,,
69845.0,0.00064,-96.11,,,,,,,
69845.17,0.00062,-95.52,,,,,,,
69845.54,0.00059,-96.49,,,,,,,
69846.01,0.00054,-95.2,,,,,,,
69846.17,0.00052,-95.0,,,,,,,
69846.46,0.00049,-93.85,,,,,,,
69846.98,0.00044,-91.42,,,,,,,
69847.17,0.00042,-91.17,,,,,,,
69847.46,0.00039,-90.63,,,,,,,
69848.04,0.00034,-89.41,,,,,,,
69848.17,0.00034,-90.0,,,,,,,
69848.71,0.00029,-98.45,,,,,,,
69849.17,0.00024,-99.9,,,,,,,
69849.18,0.00024,-99.94,,,,,,,
69849.53,0.00019,-100.85,,,,,,,
69850.14,0.00014,-101.92,,,,,,,
69850.17,0.00013,-102.2,,,,,,,
69850.51,9e-05,-102.3,,,,,,,
69851.03,4e-05,-100.33,,,,,,,
69851.17,2e-05,-99.93,,,,,,,
69851.44,-1e-05,-98.48,,,,,,,
69852.01,-6e-05,-96.43,,,,,,,
69852.17,-8e-05,-96.14,,,,,,,
69852.47,-0.00011,-96.36,,,,,,,
69852.94,-0.00016,-94.76,,,,,,,
69853.17,-0.00018,-93.84,,,,,,,
69853.55,-0.00021,-95.31,,,,,,,
69854.01,-0.00026,-95.2,,,,,,,
69854.17,-0.00028,-95.66,,,,,,,
69854.4,-0.00031,-94.79,,,,,,,
69855.02,-0.00036,-94.4,,,,,,,
69855.17,-0.00039,-94.45,,,,,,,
69855.49,-0.00041,-92.79,,,,,,,
69855.9,-0.00046,-92.48,,,,,,,
69856.17,-0.00048,-91.91,,,,,,,
69856.48,-0.00051,-92.21,,,,,,,
69856.99,-0.00056,-93.75,,,,,,,
69857.17,-0.00058,-93.99,,,,,,,
69857.5,-0.00061,-94.96,,,,,,,
69857.95,-0.00066,-95.47,,,,,,,
69858.17,-0.00068,-94.94,,,,,,,
69858.5,-0.00071,-95.97,,,,,,,
69858.97,-0.00076,-95.74,,,,,,,
69859.17,-0.00078,-95.46,,,,,,,
69859.49,-0.00081,-96.5,,,,,,,
69859.97,-0.00086,-96.42,,,,,,,
69860.17,-0.00089,-95.81,,,,,,,
69860.51,-0.00091,-95.8,,,,,,,
69860.97,-0.00096,-93.91,,,,,,,
69861.17,-0.00098,-94.19,,,,,,,
69861.49,-0.00102,-94.6,,,,,,,
69862.02,-0.00107,-97.75,,,,,,,
69862.17,-0.00109,-97.55,,,,,,,
69862.59,-0.00112,-97.67,,,,,,,
69863.0,-0.00117,-97.43,,,,,,,
69863.17,-0.00117,-97.44,,,,,,,
69863.51,-0.00122,-99.21,,,,,,,
69863.94,-0.00127,-97.57,,,,,,,
69864.17,-0.00129,-96.41,,,,,,,
69864.44,-0.00132,-95.1,,,,,,,
69865.04,-0.00137,-94.63,,,,,,,
69865.17,-0.00138,-95.1,,,,,,,
69865.61,-0.00142,-97.43,,,,,,,
69866.03,-0.00147,-97.35,,,,,,,
69866.17,-0.00149,-97.3,,,,,,,
69866.51,-0.00152,-96.71,,,,,,,
69867.01,-0.00157,-96.39,,,,,,,
69867.17,-0.00157,-96.87,,,,,,,
69867.55,-0.00162,-98.72,,,,,,,
69868.05,-0.00167,-99.3,,,,,,,
69868.17,-0.00168,-99.37,,,,,,,
69868.51,-0.00172,-99.59,,,,,,,
69869.05,-0.00177,-99.37,,,,,,,
69869.17,-0.00179,-99.22,,,,,,,
69869.46,-0.00182,-98.62,,,,,,,
69870.11,-0.00187,-98.43,,,,,,,
69870.17,-0.00188,-99.02,,,,,,,
69870.58,-0.00192,-99.55,,,,,,,
69870.98,-0.00197,-99.16,,,,,,,
69871.17,-0.00198,-98.58,,,,,,,
69871.59,-0.00202,-99.43,,,,,,,
69872.02,-0.00207,-100.71,,,,,,,
69872.17,-0.00208,-100.39,,,,,,,
69872.5,-0.00212,-98.83,,,,,,,
69873.01,-0.00217,-96.9,,,,,,,
69873.17,-0.00219,-96.73,,,,,,,
69873.34,-0.00222,-96.4,,,,,,,
69874.08,-0.00227,-93.49,,,,,,,
69874.17,-0.00228,-94.07,,,,,,,
69874.45,-0.00232,-93.91,,,,,,,
69875.03,-0.00237,-95.17,,,,,,,
69875.17,-0.00238,-95.6,,,,,,,
69875.47,-0.00242,-97.39,,,,,,,
69876.05,-0.00247,-99.2,,,,,,,
69876.17,-0.00249,-98.94,,,,,,,
69876.57,-0.00252,-98.93,,,,,,,
69877.08,-0.00257,-101.3,,,,,,,
69877.17,-0.00258,-101.6,,,,,,,
69877.62,-0.00262,-102.47,,,,,,,
69877.96,-0.00267,-101.75,,,,,,,
69878.17,-0.00268,-100.6,,,,,,,
69878.58,-0.00272,-100.37,,,,,,,
69879.09,-0.00277,-101.34,,,,,,,
69879.17,-0.00278,-101.56,,,,,,,
69879.65,-0.00282,-103.2,,,,,,,
69880.01,-0.00287,-104.64,,,,,,,
69880.17,-0.00288,-103.66,,,,,,,
69880.54,-0.00292,-103.38,,,,,,,
69881.01,-0.00297,-102.6,,,,,,,
69881.17,-0.00298,-102.23,,,,,,,
69881.55,-0.00302,-101.71,,,,,,,
69881.89,-0.00307,-100.32,,,,,,,
69882.17,-0.00308,-98.44,,,,,,,
69882.57,-0.00312,-99.12,,,,,,,
69883.04,-0.00317,-99.54,,,,,,,
69883.17,-0.00318,-99.59,,,,,,,
69883.55,-0.00322,-99.42,,,,,,,
69884.0,-0.00327,-98.32,,,,,,,
69884.17,-0.00328,-98.08,,,,,,,
69884.52,-0.00332,-99.68,,,,,,,
69885.04,-0.00337,-99.33,,,,,,,
69885.17,-0.00338,-99.5,,,,,,,
69885.51,-0.00342,-102.19,,,,,,,
69886.05,-0.00347,-101.46,,,,,,,
69886.17,-0.00349,-101.4,,,,,,,
69886.55,-0.00352,-100.38,,,,,,,
69887.0,-0.00357,-101.8,,,,,,,
69887.17,-0.00359,-101.14,,,,,,,
69887.52,-0.00362,-99.06,,,,,,,
69888.05,-0.00367,-100.32,,,,,,,
69888.17,-0.00368,-100.38,,,,,,,
69888.56,-0.00372,-100.53,,,,,,,
69889.05,-0.00377,-101.67,,,,,,,
69889.17,-0.00378,-101.6,,,,,,,
69889.56,-0.00382,-101.94,,,,,,,
69890.01,-0.00387,-101.03,,,,,,,
69890.17,-0.00388,-100.58,,,,,,,
69890.57,-0.00392,-100.25,,,,,,,
69891.04,-0.00397,-99.73,,,,,,,
69891.17,-0.00398,-99.63,,,,,,,
69891.55,-0.00402,-100.42,,,,,,,
69891.98,-0.00407,-99.15,,,,,,,
69892.17,-0.00408,-98.67,,,,,,,
69892.56,-0.00412,-99.09,,,,,,,
69893.09,-0.00417,-99.94,,,,,,,
69893.17,-0.00418,-100.18,,,,,,,
69893.51,-0.00422,-99.8,,,,,,,
69894.0,-0.00427,-98.24,,,,,,,
69894.17,-0.00429,-97.52,,,,,,,
69894.54,-0.00432,-97.38,,,,,,,
69895.01,-0.00437,-99.74,,,,,,,
69895.17,-0.00438,-99.61,,,,,,,
69895.52,-0.00442,-99.16,,,,,,,
69896.13,-0.00447,-98.45,,,,,,,
69896.17,-0.00448,-98.83,,,,,,,
69896.65,-0.00452,-100.27,,,,,,,
69897.03,-0.00457,-100.9,,,,,,,
69897.17,-0.00459,-100.62,,,,,,,
69897.56,-0.00462,-99.82,,,,,,,
69898.12,-0.00467,-100.97,,,,,,,
69898.17,-0.00467,-101.21,,,,,,,
69898.53,-0.00472,-101.77,,,,,,,
69899.03,-0.00477,-99.41,,,,,,,
69899.17,-0.00479,-99.07,,,,,,,
69899.54,-0.00482,-98.68,,,,,,,
69900.12,-0.00487,-99.74,,,,,,,
69900.17,-0.00489,-99.94,,,,,,,
69900.57,-0.00492,-102.03,,,,,,,
69901.11,-0.00497,-103.56,,,,,,,
69901.17,-0.00498,-103.9,,,,,,,
69902.17,-0.00495,-86.85,,,,,,,
69902.52,-0.00492,-78.66,,,,,,,
69902.9,-0.00487,-71.65,,,,,,,
69903.17,-0.00485,-68.1,,,,,,,
69903.45,-0.00482,-63.48,,,,,,,
69904.0,-0.00477,-55.71,,,,,,,
69904.17,-0.00475,-52.96,,,,,,,
69904.33,-0.00472,-51.34,,,,,,,
69904.86,-0.00467,-49.18,,,,,,,
69905.17,-0.00465,-48.73,,,,,,,
69905.47,-0.00462,-45.28,,,,,,,
69906.0,-0.00457,-40.27,,,,,,,
69906.17,-0.00454,-38.81,,,,,,,
69906.4,-0.00452,-38.0,,,,,,,
69906.95,-0.00447,-31.52,,,,,,,
69907.17,-0.00447,-30.29,,,,,,,
69907.47,-0.00442,-26.84,,,,,,,
69908.08,-0.00437,-19.56,,,,,,,
69908.17,-0.00436,-18.3,,,,,,,
69908.55,-0.00432,-13.69,,,,,,,
69909.11,-0.00427,-8.6,,,,,,,
69909.17,-0.00426,-7.9,,,,,,,
69909.64,-0.00422,-3.17,,,,,,,
69910.03,-0.00417,-0.02,,,,,,,
69910.17,-0.00415,0.45,,,,,,,
69910.51,-0.00412,1.27,,,,,,,
69911.08,-0.00407,6.47,,,,,,,
69911.17,-0.00406,7.23,,,,,,,
69911.63,-0.00402,10.33,,,,,,,
69912.17,-0.00399,12.91,,,,,,,
69912.39,-0.00397,14.1,,,,,,,
69912.77,-0.00392,18.61,,,,,,,
69913.17,-0.00388,21.68,,,,,,,
69913.39,-0.00387,23.3,,,,,,,
69913.86,-0.00382,26.57,,,,,,,
69914.17,-0.00379,28.69,,,,,,,
69914.3,-0.00377,29.71,,,,,,,
69914.54,-0.00372,33.34,,,,,,,
69915.1,-0.00367,35.68,,,,,,,
69915.17,-0.00366,36.65,,,,,,,
69915.5,-0.00362,39.74,,,,,,,
69915.97,-0.00357,42.25,,,,,,,
69916.17,-0.00356,42.73,,,,,,,
69916.58,-0.00352,46.1,,,,,,,
69917.16,-0.00347,50.21,,,,,,,
69917.17,-0.00347,50.35,,,,,,,
69917.58,-0.00342,54.29,,,,,,,
69918.02,-0.00337,54.94,,,,,,,
69918.17,-0.00335,55.3,,,,,,,
69918.5,-0.00332,55.11,,,,,,,
69919.01,-0.00327,56.81,,,,,,,
69919.17,-0.00326,57.69,,,,,,,
69919.54,-0.00322,60.49,,,,,,,
69920.02,-0.00317,62.9,,,,,,,
69920.17,-0.00316,63.74,,,,,,,
69920.53,-0.00312,67.27,,,,,,,
69920.97,-0.00307,69.55,,,,,,,
69921.17,-0.00305,69.55,,,,,,,
69921.53,-0.00302,71.59,,,,,,,
69922.12,-0.00297,76.3,,,,,,,
69922.17,-0.00296,76.94,,,,,,,
69922.59,-0.00292,81.71,,,,,,,
69923.05,-0.00287,84.04,,,,,,,
69923.17,-0.00286,84.61,,,,,,,
69923.51,-0.00282,85.2,,,,,,,
69923.99,-0.00277,86.09,,,,,,,
69924.17,-0.00275,85.76,,,,,,,
69924.54,-0.00272,87.65,,,,,,,
69925.03,-0.00267,88.76,,,,,,,
69925.17,-0.00265,89.4,,,,,,,
69925.46,-0.00262,90.22,,,,,,,
69925.92,-0.00257,89.1,,,,,,,
69926.17,-0.00255,88.61,,,,,,,
69926.49,-0.00252,89.55,,,,,,,
69926.9,-0.00247,90.53,,,,,,,
69927.17,-0.00244,89.09,,,,,,,
69927.44,-0.00242,88.32,,,,,,,
69927.87,-0.00237,88.1,,,,,,,
69928.17,-0.00234,86.83,,,,,,,
69928.44,-0.00232,86.81,,,,,,,
69928.96,-0.00227,88.35,,,,,,,
69929.17,-0.00224,89.18,,,,,,,
69929.51,-0.00222,89.2,,,,,,,
69929.91,-0.00217,91.96,,,,,,,
69930.17,-0.00214,92.07,,,,,,,
69930.32,-0.00212,91.68,,,,,,,
69930.85,-0.00207,88.51,,,,,,,
69931.17,-0.00204,87.35,,,,,,,
69931.35,-0.00202,87.26,,,,,,,
69931.83,-0.00197,88.07,,,,,,,
69932.17,-0.00192,87.19,,,,,,,
69932.26,-0.00192,86.55,,,,,,,
69932.84,-0.00187,87.42,,,,,,,
69933.17,-0.00182,87.44,,,,,,,
69933.37,-0.00182,86.98,,,,,,,
69933.78,-0.00177,88.78,,,,,,,
69934.17,-0.00172,87.66,,,,,,,
69934.37,-0.00172,87.29,,,,,,,
69934.8,-0.00167,87.42,,,,,,,
69935.17,-0.00164,88.92,,,,,,,
69935.43,-0.00162,91.45,,,,,,,
69935.68,-0.00157,92.23,,,,,,,
69936.17,-0.00152,85.35,,,,,,,
69936.31,-0.00152,84.95,,,,,,,
69936.94,-0.00147,90.14,,,,,,,
69937.17,-0.00142,91.81,,,,,,,
69937.24,-0.00142,91.62,,,,,,,
69937.81,-0.00137,92.15,,,,,,,
69938.17,-0.00133,93.42,,,,,,,
69938.4,-0.00132,94.54,,,,,,,
69938.79,-0.00127,96.69,,,,,,,
69939.17,-0.00124,96.61,,,,,,,
69939.31,-0.00122,97.32,,,,,,,
69939.83,-0.00117,96.43,,,,,,,
69940.17,-0.00112,94.32,,,,,,,
69940.21,-0.00112,94.0,,,,,,,
69940.76,-0.00107,95.13,,,,,,,
69941.17,-0.00102,93.65,,,,,,,
69941.29,-0.00102,93.43,,,,,,,
69941.8,-0.00097,94.61,,,,,,,
69942.17,-0.00092,93.28,,,,,,,
69942.18,-0.00092,93.25,,,,,,,
69942.72,-0.00087,91.72,,,,,,,
69943.17,-0.00082,90.88,,,,,,,
69943.23,-0.00082,90.81,,,,,,,
69943.88,-0.00076,92.87,,,,,,,
69944.17,-0.00073,94.22,,,,,,,
69944.3,-0.00071,94.64,,,,,,,
69944.75,-0.00066,93.88,,,,,,,
69945.17,-0.00063,95.15,,,,,,,
69945.26,-0.00061,95.21,,,,,,,
69945.73,-0.00056,95.08,,,,,,,
69946.17,-0.00052,93.36,,,,,,,
69946.26,-0.00051,93.26,,,,,,,
69946.72,-0.00046,92.11,,,,,,,
69947.17,-0.00042,92.71,,,,,,,
69947.26,-0.00041,92.78,,,,,,,
69947.69,-0.00036,91.6,,,,,,,
69948.17,-0.00032,88.75,,,,,,,
69948.21,-0.00031,88.68,,,,,,,
69948.67,-0.00026,87.09,,,,,,,
69949.17,-0.00022,89.15,,,,,,,
69949.3,-0.00021,89.62,,,,,,,
69949.71,-0.00016,89.36,,,,,,,
69950.17,-0.00012,89.21,,,,,,,
69950.28,-0.00011,89.36,,,,,,,
69950.73,-6e-05,92.95,,,,,,,
69951.17,-3e-05,93.35,,,,,,,
69951.26,-1e-05,93.76,,,,,,,
69951.8,4e-05,93.07,,,,,,,
69952.17,8e-05,93.1,,,,,,,
69952.23,9e-05,93.05,,,,,,,
69952.6,0.00014,91.83,,,,,,,
69953.17,0.00018,88.21,,,,,,,
69953.34,0.00019,88.93,,,,,,,
69953.73,0.00024,92.44,,,,,,,
69954.17,0.00028,93.93,,,,,,,
69954.27,0.00029,93.69,,,,,,,
69954.86,0.00034,95.17,,,,,,,
69955.17,0.00038,97.48,,,,,,,
69955.34,0.00039,97.85,,,,,,,
69955.81,0.00044,98.99,,,,,,,
69956.17,0.00048,100.22,,,,,,,
69956.22,0.00049,100.11,,,,,,,
69956.74,0.00054,98.12,,,,,,,
69957.17,0.00058,96.57,,,,,,,
69957.3,0.00059,96.39,,,,,,,
69957.75,0.00064,96.84,,,,,,,
69958.17,0.00067,95.98,,,,,,,
69958.31,0.00069,97.06,,,,,,,
69958.71,0.00074,96.29,,,,,,,
69959.17,0.00078,96.43,,,,,,,
69959.23,0.00079,96.49,,,,,,,
69959.72,0.00084,96.47,,,,,,,
69960.17,0.00089,94.0,,,,,,,
69960.2,0.00089,93.81,,,,,,,
69960.76,0.00094,93.88,,,,,,,
69961.17,0.00098,93.87,,,,,,,
69961.29,0.00099,94.34,,,,,,,
69961.81,0.00104,93.86,,,,,,,
69962.17,0.00108,95.22,,,,,,,
69962.21,0.00109,95.1,,,,,,,
69962.74,0.00114,94.87,,,,,,,
69963.17,0.00118,94.35,,,,,,,
69963.3,0.00119,94.88,,,,,,,
69963.76,0.00124,95.61,,,,,,,
69964.17,0.00129,95.47,,,,,,,
69964.26,0.00129,95.13,,,,,,,
69964.84,0.00134,96.03,,,,,,,
69965.17,0.00138,96.53,,,,,,,
69965.22,0.00139,96.34,,,,,,,
69965.78,0.00144,95.68,,,,,,,
69966.17,0.00148,96.41,,,,,,,
69966.26,0.00149,96.64,,,,,,,
69966.73,0.00154,94.99,,,,,,,
69967.17,0.00158,95.18,,,,,,,
69967.32,0.00159,95.4,,,,,,,
69967.78,0.00164,95.3,,,,,,,
69968.17,0.00168,95.48,,,,,,,
69968.22,0.00169,95.37,,,,,,,
69968.81,0.00174,94.27,,,,,,,
69969.17,0.00178,95.65,,,,,,,
69969.26,0.00179,95.83,,,,,,,
69969.74,0.00184,95.54,,,,,,,
69970.17,0.00188,96.4,,,,,,,
69970.25,0.00189,96.47,,,,,,,
69970.75,0.00194,97.01,,,,,,,
69971.17,0.00198,96.85,,,,,,,
69971.26,0.00199,96.89,,,,,,,
69971.8,0.00204,96.83,,,,,,,
69972.17,0.00207,97.21,,,,,,,
69972.27,0.00209,97.79,,,,,,,
69972.7,0.00214,96.93,,,,,,,
69973.17,0.00218,94.87,,,,,,,
69973.32,0.00219,95.02,,,,,,,
69973.72,0.00224,96.63,,,,,,,
69974.17,0.00228,92.53,,,,,,,
69974.33,0.00229,93.04,,,,,,,
69974.72,0.00234,93.99,,,,,,,
69975.17,0.00237,92.18,,,,,,,
69975.3,0.00239,93.21,,,,,,,
69975.71,0.00244,95.13,,,,,,,
69976.17,0.00249,94.08,,,,,,,
69976.23,0.00249,93.86,,,,,,,
69976.69,0.00254,92.42,,,,,,,
69977.17,0.00257,90.14,,,,,,,
69977.33,0.00259,91.33,,,,,,,
69977.77,0.00264,94.15,,,,,,,
69978.17,0.00268,93.63,,,,,,,
69978.3,0.00269,93.71,,,,,,,
69978.86,0.00274,94.59,,,,,,,
69979.17,0.00279,95.78,,,,,,,
69979.28,0.00279,95.49,,,,,,,
69979.83,0.00284,96.54,,,,,,,
69980.17,0.00288,97.78,,,,,,,
69980.38,0.00289,98.77,,,,,,,
69980.82,0.00294,99.52,,,,,,,
69981.17,0.00299,98.65,,,,,,,
69981.17,0.00299,98.64,,,,,,,
69981.65,0.00304,94.66,,,,,,,
69982.17,0.00309,92.38,,,,,,,
69982.19,0.00309,92.36,,,,,,,
69982.75,0.00314,93.44,,,,,,,
69983.17,0.00317,93.12,,,,,,,
69983.3,0.00319,93.93,,,,,,,
69983.83,0.00324,96.39,,,,,,,
69984.17,0.00328,97.32,,,,,,,
69984.3,0.00329,97.54,,,,,,,
69984.81,0.00334,99.26,,,,,,,
69985.17,0.00337,99.71,,,,,,,
69985.3,0.00339,100.09,,,,,,,
69985.67,0.00344,97.43,,,,,,,
69986.17,0.00347,96.67,,,,,,,
69986.38,0.00349,99.13,,,,,,,
69986.91,0.00354,99.22,,,,,,,
69987.17,0.00357,101.71,,,,,,,
69987.33,0.00359,102.54,,,,,,,
69987.77,0.00364,101.6,,,,,,,
69988.15,0.00369,98.84,,,,,,,
69988.17,0.00369,98.6,,,,,,,
69988.76,0.00374,95.96,,,,,,,
69989.17,0.00378,97.36,,,,,,,
69989.27,0.00379,97.51,,,,,,,
69989.76,0.00384,97.63,,,,,,,
69990.17,0.00388,97.59,,,,,,,
69990.3,0.00389,98.0,,,,,,,
69990.76,0.00394,98.08,,,,,,,
69991.17,0.00398,96.83,,,,,,,
69991.28,0.00399,96.66,,,,,,,
69991.83,0.00404,98.1,,,,,,,
69992.17,0.00409,98.53,,,,,,,
69992.22,0.00409,98.36,,,,,,,
69992.76,0.00414,96.12,,,,,,,
69993.17,0.00419,95.0,,,,,,,
69993.2,0.00419,94.98,,,,,,,
69993.82,0.00424,94.23,,,,,,,
69994.17,0.00428,93.44,,,,,,,
69994.3,0.00429,93.49,,,,,,,
69994.75,0.00434,95.23,,,,,,,
69995.17,0.00438,95.25,,,,,,,
69995.33,0.00439,96.27,,,,,,,
69995.8,0.00444,97.54,,,,,,,
69996.17,0.00448,98.39,,,,,,,
69996.23,0.00449,98.34,,,,,,,
69996.77,0.00454,96.71,,,,,,,
69997.17,0.00458,95.96,,,,,,,
69997.36,0.00459,97.06,,,,,,,
69997.9,0.00464,97.89,,,,,,,
69998.17,0.00468,99.96,,,,,,,
69998.33,0.00469,100.62,,,,,,,
69998.77,0.00474,99.94,,,,,,,
69999.17,0.00478,99.41,,,,,,,
69999.25,0.00479,99.49,,,,,,,
69999.87,0.00484,97.58,,,,,,,
70000.17,0.00489,98.34,,,,,,,
70000.21,0.00489,98.16,,,,,,,
70000.79,0.00494,95.7,,,,,,,
70001.17,0.00499,95.61,,,,,,,
70001.3,0.00499,95.28,,,,,,,
99753.17,0.0,80.12,,,,,,,
99753.5,4e-05,80.95,,,,,,,
99753.98,9e-05,80.33,,,,,,,
99754.17,0.00011,79.99,,,,,,,
99754.58,0.00014,80.13,,,,,,,
99755.01,0.00019,81.6,,,,,,,
99755.17,0.0002,81.85,,,,,,,
99755.64,0.00024,85.97,,,,,,,
99756.04,0.00029,88.06,,,,,,,
99756.17,0.0003,88.03,,,,,,,
99756.6,0.00034,88.5,,,,,,,
99757.02,0.00039,89.13,,,,,,,
99757.17,0.00041,88.76,,,,,,,
99757.44,0.00044,86.45,,,,,,,
99758.02,0.00049,83.68,,,,,,,
99758.17,0.0005,83.72,,,,,,,
99758.58,0.00054,84.83,,,,,,,
99759.08,0.00059,88.14,,,,,,,
99759.17,0.0006,88.54,,,,,,,
99759.57,0.00064,88.04,,,,,,,
99760.06,0.00069,89.62,,,,,,,
99760.17,0.00071,89.73,,,,,,,
99760.46,0.00074,86.9,,,,,,,
99761.04,0.00079,86.94,,,,,,,
99761.17,0.0008,87.25,,,,,,,
99761.58,0.00084,87.58,,,,,,,
99762.03,0.00089,88.23,,,,,,,
99762.17,0.0009,88.01,,,,,,,
99762.47,0.00094,87.22,,,,,,,
99762.91,0.00099,84.17,,,,,,,
99763.17,0.001,81.92,,,,,,,
99763.53,0.00104,83.83,,,,,,,
99764.01,0.00109,84.46,,,,,,,
99764.17,0.00111,84.33,,,,,,,
99764.57,0.00114,85.02,,,,,,,
99765.05,0.00119,86.92,,,,,,,
99765.17,0.00121,86.98,,,,,,,
99765.51,0.00124,86.73,,,,,,,
99766.06,0.00129,88.5,,,,,,,
99766.17,0.00131,88.83,,,,,,,
99766.54,0.00134,87.75,,,,,,,
99767.04,0.00139,87.59,,,,,,,
99767.17,0.0014,87.65,,,,,,,
99767.51,0.00144,87.95,,,,,,,
99767.98,0.00149,86.04,,,,,,,
99768.17,0.00151,86.02,,,,,,,
99768.51,0.00154,85.18,,,,,,,
99769.04,0.00159,85.98,,,,,,,
99769.17,0.0016,86.22,,,,,,,
99769.55,0.00164,85.94,,,,,,,
99770.09,0.00169,88.22,,,,,,,
99770.17,0.00171,88.68,,,,,,,
99770.45,0.00174,88.63,,,,,,,
99771.12,0.00179,87.14,,,,,,,
99771.17,0.0018,87.42,,,,,,,
99771.55,0.00184,88.56,,,,,,,
99771.96,0.00189,88.2,,,,,,,
99772.17,0.00192,86.63,,,,,,,
99772.51,0.00194,85.02,,,,,,,
99772.98,0.00199,83.81,,,,,,,
99773.17,0.00201,83.63,,,,,,,
99773.58,0.00204,84.72,,,,,,,
99773.94,0.00209,86.71,,,,,,,
99774.17,0.0021,85.38,,,,,,,
99774.48,0.00214,86.05,,,,,,,
99775.1,0.00219,83.58,,,,,,,
99775.17,0.0022,83.86,,,,,,,
99775.52,0.00224,84.64,,,,,,,
99776.17,0.00229,84.85,,,,,,,
99776.17,0.00229,84.95,,,,,,,
99776.45,0.00234,87.72,,,,,,,
99777.08,0.00239,88.81,,,,,,,
99777.17,0.0024,89.14,,,,,,,
99777.54,0.00244,90.5,,,,,,,
99778.01,0.00249,90.38,,,,,,,
99778.17,0.00252,89.64,,,,,,,
99778.59,0.00254,90.22,,,,,,,
99779.08,0.00259,91.28,,,,,,,
99779.17,0.00261,91.4,,,,,,,
99779.58,0.00264,90.35,,,,,,,
99780.02,0.0027,90.61,,,,,,,
99780.17,0.00271,90.23,,,,,,,
99780.63,0.00275,88.82,,,,,,,
99781.03,0.0028,90.13,,,,,,,
99781.17,0.00281,89.99,,,,,,,
99781.5,0.00285,89.55,,,,,,,
99782.05,0.0029,89.51,,,,,,,
99782.17,0.00291,89.4,,,,,,,
99782.58,0.00295,88.64,,,,,,,
99783.01,0.003,89.24,,,,,,,
99783.17,0.00301,88.61,,,,,,,
99783.55,0.00305,88.1,,,,,,,
99783.94,0.0031,86.77,,,,,,,
99784.17,0.00311,85.38,,,,,,,
99784.51,0.00315,85.39,,,,,,,
99785.09,0.0032,88.01,,,,,,,
99785.17,0.00321,88.5,,,,,,,
99785.56,0.00325,89.4,,,,,,,
99786.08,0.0033,90.0,,,,,,,
99786.17,0.00331,90.16,,,,,,,
99786.57,0.00335,88.82,,,,,,,
99787.08,0.0034,88.92,,,,,,,
99787.17,0.00341,89.01,,,,,,,
99787.52,0.00345,87.84,,,,,,,
99788.08,0.0035,89.0,,,,,,,
99788.17,0.0035,89.14,,,,,,,
99788.54,0.00355,90.27,,,,,,,
99789.0,0.0036,90.55,,,,,,,
99789.17,0.00361,89.68,,,,,,,
99789.56,0.00365,88.55,,,,,,,
99790.12,0.0037,87.88,,,,,,,
99790.17,0.00371,88.05,,,,,,,
99790.51,0.00375,87.52,,,,,,,
99790.99,0.0038,88.02,,,,,,,
99791.17,0.00382,86.71,,,,,,,
99791.58,0.00385,85.9,,,,,,,
99792.11,0.0039,87.83,,,,,,,
99792.17,0.0039,88.04,,,,,,,
99792.54,0.00395,88.82,,,,,,,
99793.04,0.004,90.42,,,,,,,
99793.17,0.00402,90.05,,,,,,,
99793.57,0.00405,86.01,,,,,,,
99794.12,0.0041,87.47,,,,,,,
99794.17,0.0041,87.79,,,,,,,
99794.52,0.00415,87.5,,,,,,,
99795.09,0.0042,87.83,,,,,,,
99795.17,0.0042,87.97,,,,,,,
99795.57,0.00425,89.17,,,,,,,
99796.16,0.0043,87.87,,,,,,,
99796.17,0.0043,87.9,,,,,,,
99796.62,0.00435,89.89,,,,,,,
99797.11,0.0044,91.49,,,,,,,
99797.17,0.00441,91.53,,,,,,,
99797.6,0.00445,90.4,,,,,,,
99798.15,0.0045,91.69,,,,,,,
99798.17,0.0045,91.77,,,,,,,
99798.45,0.00455,92.3,,,,,,,
99799.12,0.0046,89.29,,,,,,,
99799.17,0.0046,89.53,,,,,,,
99799.57,0.00465,90.85,,,,,,,
99800.01,0.0047,89.65,,,,,,,
99800.17,0.00471,89.27,,,,,,,
99800.54,0.00475,88.74,,,,,,,
99801.01,0.0048,86.57,,,,,,,
99801.17,0.00481,86.06,,,,,,,
99801.53,0.00485,84.68,,,,,,,
99801.94,0.0049,85.37,,,,,,,
99802.17,0.0049,85.03,,,,,,,
99802.6,0.00495,88.4,,,,,,,
99803.14,0.005,88.67,,,,,,,
99803.17,0.005,88.7,,,,,,,
99803.84,0.00495,75.76,,,,,,,
99804.17,0.00492,70.25,,,,,,,
99804.4,0.0049,66.63,,,,,,,
99804.89,0.00485,63.63,,,,,,,
99805.17,0.00481,60.37,,,,,,,
99805.47,0.0048,57.02,,,,,,,
99805.89,0.00475,52.53,,,,,,,
99806.17,0.00473,50.29,,,,,,,
99806.41,0.0047,46.49,,,,,,,
99806.96,0.00465,41.2,,,,,,,
99807.17,0.00462,39.57,,,,,,,
99807.45,0.0046,37.65,,,,,,,
99808.07,0.00455,30.15,,,,,,,
99808.17,0.00453,28.35,,,,,,,
99808.51,0.0045,23.91,,,,,,,
99809.0,0.00445,19.63,,,,,,,
99809.17,0.00442,18.29,,,,,,,
99809.6,0.0044,14.84,,,,,,,
99810.1,0.00435,8.53,,,,,,,
99810.17,0.00434,7.7,,,,,,,
99810.53,0.0043,4.17,,,,,,,
99811.17,0.00428,1.36,,,,,,,
99811.67,0.00425,-4.48,,,,,,,
99812.0,0.0042,-9.64,,,,,,,
99812.17,0.00417,-11.7,,,,,,,
99812.51,0.00415,-14.05,,,,,,,
99812.84,0.0041,-18.89,,,,,,,
99813.07,0.00405,-23.64,,,,,,,
99813.17,0.00402,-24.46,,,,,,,
99813.35,0.004,-23.94,,,,,,,
99813.87,0.00395,-22.74,,,,,,,
99814.17,0.00392,-21.84,,,,,,,
99814.4,0.0039,-22.1,,,,,,,
99814.92,0.00385,-24.65,,,,,,,
99815.17,0.00382,-24.78,,,,,,,
99815.47,0.0038,-26.74,,,,,,,
99815.9,0.00375,-28.44,,,,,,,
99816.17,0.00372,-27.86,,,,,,,
99816.47,0.0037,-28.57,,,,,,,
99817.01,0.00365,-33.33,,,,,,,
99817.17,0.00363,-34.33,,,,,,,
99817.47,0.0036,-35.31,,,,,,,
99817.94,0.00355,-36.88,,,,,,,
99818.17,0.00353,-37.88,,,,,,,
99818.41,0.0035,-39.2,,,,,,,
99818.95,0.00345,-40.88,,,,,,,
99819.17,0.00342,-41.42,,,,,,,
99819.37,0.0034,-41.66,,,,,,,
99820.05,0.00335,-43.52,,,,,,,
99820.17,0.00333,-44.63,,,,,,,
99820.5,0.0033,-46.98,,,,,,,
99820.94,0.00325,-49.77,,,,,,,
99821.17,0.00323,-50.5,,,,,,,
99821.44,0.0032,-51.47,,,,,,,
99821.94,0.00315,-55.1,,,,,,,
99822.17,0.00313,-55.46,,,,,,,
99822.47,0.0031,-57.05,,,,,,,
99823.04,0.00305,-59.45,,,,,,,
99823.17,0.00303,-60.64,,,,,,,
99823.47,0.003,-63.71,,,,,,,
99823.99,0.00295,-64.86,,,,,,,
99824.17,0.00292,-65.21,,,,,,,
99824.51,0.0029,-65.21,,,,,,,
99824.86,0.00285,-65.57,,,,,,,
99825.17,0.00283,-64.63,,,,,,,
99825.51,0.0028,-66.61,,,,,,,
99825.87,0.00275,-68.65,,,,,,,
99826.17,0.00273,-69.37,,,,,,,
99826.38,0.0027,-70.98,,,,,,,
99826.9,0.00265,-70.65,,,,,,,
99827.17,0.00262,-70.77,,,,,,,
99827.41,0.00259,-71.33,,,,,,,
99827.94,0.00254,-72.67,,,,,,,
99828.17,0.00253,-73.55,,,,,,,
99828.37,0.00249,-74.99,,,,,,,
99828.92,0.00244,-74.44,,,,,,,
99829.17,0.00243,-75.62,,,,,,,
99829.44,0.00239,-78.06,,,,,,,
99829.9,0.00234,-77.4,,,,,,,
99830.17,0.00232,-78.72,,,,,,,
99830.42,0.00229,-79.65,,,,,,,
99830.8,0.00224,-79.06,,,,,,,
99831.17,0.00221,-78.07,,,,,,,
99831.36,0.00219,-77.77,,,,,,,
99831.78,0.00214,-76.68,,,,,,,
99832.17,0.00212,-78.56,,,,,,,
99832.35,0.00209,-80.02,,,,,,,
99832.94,0.00204,-81.46,,,,,,,
99833.17,0.00201,-82.64,,,,,,,
99833.32,0.00199,-82.6,,,,,,,
99833.82,0.00194,-81.03,,,,,,,
99834.17,0.0019,-80.13,,,,,,,
99834.2,0.00189,-79.99,,,,,,,
99834.81,0.00184,-77.88,,,,,,,
99835.17,0.00181,-77.88,,,,,,,
99835.32,0.00179,-78.06,,,,,,,
99835.76,0.00174,-79.14,,,,,,,
99836.17,0.00171,-79.28,,,,,,,
99836.25,0.00169,-79.47,,,,,,,
99836.74,0.00164,-79.27,,,,,,,
99837.17,0.00161,-78.54,,,,,,,
99837.32,0.00159,-79.59,,,,,,,
99837.79,0.00154,-81.83,,,,,,,
99838.17,0.00151,-81.27,,,,,,,
99838.29,0.00149,-81.4,,,,,,,
99838.8,0.00144,-82.16,,,,,,,
99839.17,0.0014,-81.59,,,,,,,
99839.26,0.00139,-81.53,,,,,,,
99839.83,0.00134,-81.51,,,,,,,
99840.17,0.00131,-81.9,,,,,,,
99840.38,0.00129,-82.93,,,,,,,
99840.81,0.00124,-85.85,,,,,,,
99841.17,0.00119,-87.23,,,,,,,
99841.19,0.00119,-87.11,,,,,,,
99841.8,0.00114,-87.2,,,,,,,
99842.17,0.00111,-86.95,,,,,,,
99842.25,0.00109,-87.14,,,,,,,
99842.76,0.00104,-87.35,,,,,,,
99843.17,0.001,-86.13,,,,,,,
99843.3,0.00099,-86.23,,,,,,,
99843.81,0.00094,-86.4,,,,,,,
99844.17,0.00089,-84.9,,,,,,,
99844.19,0.00089,-84.82,,,,,,,
99844.77,0.00084,-83.85,,,,,,,
99845.17,0.0008,-84.59,,,,,,,
99845.28,0.00079,-84.47,,,,,,,
99845.77,0.00074,-85.74,,,,,,,
99846.17,0.00071,-85.63,,,,,,,
99846.26,0.00069,-86.2,,,,,,,
99846.72,0.00064,-86.73,,,,,,,
99847.15,0.00059,-86.19,,,,,,,
99847.17,0.00059,-86.02,,,,,,,
99847.65,0.00054,-86.11,,,,,,,
99848.17,0.0005,-85.23,,,,,,,
99848.22,0.00049,-85.22,,,,,,,
99848.8,0.00044,-85.82,,,,,,,
99849.17,0.00039,-86.78,,,,,,,
99849.22,0.00039,-86.58,,,,,,,
99849.71,0.00034,-86.0,,,,,,,
99850.17,0.0003,-84.72,,,,,,,
99850.3,0.00029,-85.05,,,,,,,
99850.76,0.00024,-87.14,,,,,,,
99851.15,0.00019,-86.28,,,,,,,
99851.17,0.00019,-86.19,,,,,,,
99851.75,0.00014,-86.75,,,,,,,
99852.17,9e-05,-86.42,,,,,,,
99852.22,9e-05,-86.32,,,,,,,
99852.62,4e-05,-84.87,,,,,,,
99853.17,-0.0,-84.45,,,,,,,
99853.21,-1e-05,-84.52,,,,,,,
99853.78,-6e-05,-87.58,,,,,,,
99854.14,-0.00011,-87.18,,,,,,,
99854.17,-0.00011,-86.96,,,,,,,
99854.76,-0.00016,-85.52,,,,,,,
99855.17,-0.0002,-85.54,,,,,,,
99855.23,-0.00021,-85.65,,,,,,,
99855.81,-0.00026,-87.33,,,,,,,
99856.17,-0.0003,-88.4,,,,,,,
99856.22,-0.00031,-88.43,,,,,,,
99856.78,-0.00036,-89.93,,,,,,,
99857.17,-0.0004,-90.6,,,,,,,
99857.24,-0.00041,-90.71,,,,,,,
99857.74,-0.00046,-89.96,,,,,,,
99858.17,-0.0005,-90.74,,,,,,,
99858.26,-0.00051,-90.87,,,,,,,
99858.76,-0.00056,-90.3,,,,,,,
99859.17,-0.00061,-88.73,,,,,,,
99859.25,-0.00061,-88.72,,,,,,,
99859.69,-0.00066,-87.06,,,,,,,
99860.17,-0.00071,-86.26,,,,,,,
99860.22,-0.00071,-86.31,,,,,,,
99860.77,-0.00076,-87.56,,,,,,,
99861.17,-0.0008,-88.5,,,,,,,
99861.27,-0.00081,-88.91,,,,,,,
99861.7,-0.00086,-89.72,,,,,,,
99862.17,-0.0009,-89.7,,,,,,,
99862.27,-0.00091,-89.83,,,,,,,
99862.62,-0.00096,-89.09,,,,,,,
99863.15,-0.00101,-85.99,,,,,,,
99863.17,-0.00102,-85.9,,,,,,,
99863.69,-0.00106,-83.94,,,,,,,
99864.17,-0.00111,-84.91,,,,,,,
99864.34,-0.00111,-85.68,,,,,,,
99864.76,-0.00116,-88.33,,,,,,,
99865.17,-0.00121,-89.01,,,,,,,
99865.2,-0.00121,-89.05,,,,,,,
99865.71,-0.00126,-89.24,,,,,,,
99866.17,-0.00131,-86.81,,,,,,,
99866.19,-0.00131,-86.8,,,,,,,
99866.69,-0.00136,-86.76,,,,,,,
99867.17,-0.00141,-86.32,,,,,,,
99867.17,-0.00141,-86.29,,,,,,,
99867.64,-0.00146,-85.1,,,,,,,
99868.17,-0.0015,-84.13,,,,,,,
99868.26,-0.00151,-84.52,,,,,,,
99868.71,-0.00156,-86.35,,,,,,,
99869.17,-0.00161,-84.9,,,,,,,
99869.31,-0.00161,-85.1,,,,,,,
99869.63,-0.00166,-86.29,,,,,,,
99870.15,-0.00171,-86.65,,,,,,,
99870.17,-0.00172,-86.65,,,,,,,
99870.79,-0.00176,-86.74,,,,,,,
99871.17,-0.0018,-88.86,,,,,,,
99871.28,-0.00181,-89.63,,,,,,,
99871.75,-0.00186,-90.48,,,,,,,
99872.17,-0.00191,-91.43,,,,,,,
99872.19,-0.00191,-91.4,,,,,,,
99872.8,-0.00196,-89.84,,,,,,,
99873.17,-0.00201,-89.99,,,,,,,
99873.19,-0.00201,-89.97,,,,,,,
99873.84,-0.00206,-89.46,,,,,,,
99874.17,-0.00211,-91.42,,,,,,,
99874.26,-0.00211,-91.36,,,,,,,
99874.77,-0.00216,-92.75,,,,,,,
99875.17,-0.00221,-92.19,,,,,,,
99875.24,-0.00221,-92.09,,,,,,,
99875.74,-0.00226,-92.08,,,,,,,
99876.17,-0.00231,-91.28,,,,,,,
99876.23,-0.00231,-91.36,,,,,,,
99876.63,-0.00236,-89.0,,,,,,,
99877.17,-0.00241,-86.75,,,,,,,
99877.26,-0.00241,-86.8,,,,,,,
99877.83,-0.00246,-88.97,,,,,,,
99878.17,-0.00251,-89.58,,,,,,,
99878.19,-0.00251,-89.55,,,,,,,
99878.78,-0.00256,-90.02,,,,,,,
99879.17,-0.00261,-88.83,,,,,,,
99879.22,-0.00261,-88.79,,,,,,,
99879.76,-0.00267,-89.13,,,,,,,
99880.15,-0.00272,-87.78,,,,,,,
99880.17,-0.00272,-87.71,,,,,,,
99880.83,-0.00277,-87.09,,,,,,,
99881.17,-0.00281,-87.03,,,,,,,
99881.19,-0.00282,-86.99,,,,,,,
99881.75,-0.00287,-85.68,,,,,,,
99882.17,-0.00291,-86.72,,,,,,,
99882.19,-0.00292,-86.7,,,,,,,
99882.8,-0.00297,-86.78,,,,,,,
99883.17,-0.00301,-87.75,,,,,,,
99883.19,-0.00302,-87.75,,,,,,,
99883.77,-0.00307,-85.89,,,,,,,
99884.17,-0.00311,-85.59,,,,,,,
99884.26,-0.00312,-85.58,,,,,,,
99884.7,-0.00317,-86.8,,,,,,,
99885.17,-0.00321,-87.17,,,,,,,
99885.22,-0.00322,-87.1,,,,,,,
99885.73,-0.00327,-86.83,,,,,,,
99886.17,-0.00331,-88.13,,,,,,,
99886.24,-0.00332,-88.28,,,,,,,
99886.78,-0.00337,-89.76,,,,,,,
99887.17,-0.0034,-90.7,,,,,,,
99887.3,-0.00342,-91.39,,,,,,,
99887.7,-0.00347,-89.11,,,,,,,
99888.17,-0.0035,-90.26,,,,,,,
99888.31,-0.00352,-91.27,,,,,,,
99888.78,-0.00357,-91.44,,,,,,,
99889.17,-0.0036,-92.25,,,,,,,
99889.34,-0.00362,-93.78,,,,,,,
99889.72,-0.00367,-94.78,,,,,,,
99890.17,-0.00371,-93.49,,,,,,,
99890.28,-0.00372,-93.39,,,,,,,
99890.72,-0.00377,-92.58,,,,,,,
99891.17,-0.00381,-91.03,,,,,,,
99891.24,-0.00382,-90.91,,,,,,,
99891.75,-0.00387,-89.18,,,,,,,
99892.17,-0.00391,-89.34,,,,,,,
99892.26,-0.00392,-89.54,,,,,,,
99892.76,-0.00397,-91.03,,,,,,,
99893.17,-0.004,-91.07,,,,,,,
99893.29,-0.00402,-91.54,,,,,,,
99893.72,-0.00407,-90.59,,,,,,,
99894.17,-0.00411,-90.41,,,,,,,
99894.28,-0.00412,-90.74,,,,,,,
99894.65,-0.00417,-90.47,,,,,,,
99895.17,-0.0042,-89.82,,,,,,,
99895.36,-0.00422,-91.71,,,,,,,
99895.8,-0.00427,-91.68,,,,,,,
99896.17,-0.00431,-92.22,,,,,,,
99896.21,-0.00432,-92.17,,,,,,,
99896.83,-0.00437,-90.77,,,,,,,
99897.17,-0.00441,-91.59,,,,,,,
99897.22,-0.00442,-91.54,,,,,,,
99897.67,-0.00447,-90.55,,,,,,,
99898.17,-0.00451,-89.19,,,,,,,
99898.23,-0.00452,-89.19,,,,,,,
99898.78,-0.00457,-88.14,,,,,,,
99899.17,-0.00461,-87.06,,,,,,,
99899.3,-0.00462,-87.18,,,,,,,
99899.71,-0.00467,-88.45,,,,,,,
99900.17,-0.00471,-88.75,,,,,,,
99900.28,-0.00472,-89.07,,,,,,,
99900.76,-0.00477,-89.86,,,,,,,
99901.17,-0.00481,-89.43,,,,,,,
99901.26,-0.00482,-89.43,,,,,,,
99901.81,-0.00487,-90.31,,,,,,,
99902.17,-0.0049,-90.16,,,,,,,
99902.31,-0.00492,-90.44,,,,,,,
99902.94,-0.00497,-94.88,,,,,,,
99903.17,-0.00501,-96.11,,,,,,,
99904.15,-0.00492,-81.26,,,,,,,
99904.17,-0.00492,-80.86,,,,,,,
99904.57,-0.00487,-75.51,,,,,,,
99905.15,-0.00482,-66.94,,,,,,,
99905.17,-0.00481,-66.78,,,,,,,
99905.69,-0.00477,-60.01,,,,,,,
99906.17,-0.00472,-54.05,,,,,,,
99906.3,-0.00472,-52.37,,,,,,,
99906.78,-0.00467,-47.86,,,,,,,
99907.17,-0.00462,-41.73,,,,,,,
99907.21,-0.00462,-41.41,,,,,,,
99907.68,-0.00457,-37.92,,,,,,,
99908.17,-0.00452,-35.04,,,,,,,
99908.22,-0.00452,-34.69,,,,,,,
99908.66,-0.00447,-32.49,,,,,,,
99909.12,-0.00442,-31.49,,,,,,,
99909.17,-0.00441,-31.49,,,,,,,
99909.84,-0.00437,-24.22,,,,,,,
99910.17,-0.00433,-20.45,,,,,,,
99910.3,-0.00432,-18.77,,,,,,,
99910.85,-0.00427,-14.84,,,,,,,
99911.17,-0.00423,-12.03,,,,,,,
99911.34,-0.00422,-10.95,,,,,,,
99911.87,-0.00417,-6.27,,,,,,,
99912.17,-0.00413,-3.65,,,,,,,
99912.3,-0.00412,-2.81,,,,,,,
99912.85,-0.00407,1.57,,,,,,,
99913.17,-0.00403,3.65,,,,,,,
99913.3,-0.00402,4.5,,,,,,,
99913.84,-0.00397,8.32,,,,,,,
99914.17,-0.00395,11.04,,,,,,,
99914.62,-0.00392,12.21,,,,,,,
99915.05,-0.00387,14.47,,,,,,,
99915.17,-0.00385,14.8,,,,,,,
99915.57,-0.00382,17.95,,,,,,,
99916.01,-0.00377,20.01,,,,,,,
99916.17,-0.00375,20.36,,,,,,,
99916.67,-0.00371,24.46,,,,,,,
99917.05,-0.00366,26.52,,,,,,,
99917.17,-0.00365,27.18,,,,,,,
99917.4,-0.00361,30.19,,,,,,,
99917.69,-0.00356,31.98,,,,,,,
99918.17,-0.00352,31.45,,,,,,,
99918.3,-0.00351,31.52,,,,,,,
99918.82,-0.00346,35.68,,,,,,,
99919.17,-0.00343,37.3,,,,,,,
99919.3,-0.00341,37.66,,,,,,,
99919.79,-0.00336,40.9,,,,,,,
99920.17,-0.00333,42.94,,,,,,,
99920.3,-0.00331,43.48,,,,,,,
99920.86,-0.00326,46.35,,,,,,,
99921.17,-0.00323,48.37,,,,,,,
99921.32,-0.00321,49.01,,,,,,,
99921.91,-0.00316,54.12,,,,,,,
99922.17,-0.00312,55.33,,,,,,,
99922.26,-0.00311,55.21,,,,,,,
99922.81,-0.00306,57.06,,,,,,,
99923.17,-0.00303,60.29,,,,,,,
99923.29,-0.00301,60.76,,,,,,,
99923.79,-0.00296,60.81,,,,,,,
99924.17,-0.00293,61.5,,,,,,,
99924.29,-0.00291,62.01,,,,,,,
99924.77,-0.00286,62.66,,,,,,,
99925.17,-0.00283,64.17,,,,,,,
99925.33,-0.00281,65.38,,,,,,,
99925.82,-0.00276,68.14,,,,,,,
99926.17,-0.00272,68.14,,,,,,,
99926.25,-0.00271,67.96,,,,,,,
99926.75,-0.00266,69.64,,,,,,,
99927.17,-0.00262,70.34,,,,,,,
99927.26,-0.00261,70.09,,,,,,,
99927.77,-0.00256,72.67,,,,,,,
99928.17,-0.00252,73.34,,,,,,,
99928.24,-0.00251,73.35,,,,,,,
99928.72,-0.00246,73.84,,,,,,,
99929.17,-0.00242,75.61,,,,,,,
99929.24,-0.00241,75.97,,,,,,,
99929.67,-0.00236,75.29,,,,,,,
99930.17,-0.00232,73.32,,,,,,,
99930.2,-0.00231,73.39,,,,,,,
99930.66,-0.00226,72.68,,,,,,,
99931.17,-0.00221,74.88,,,,,,,
99931.19,-0.00221,74.96,,,,,,,
99931.72,-0.00216,76.85,,,,,,,
99932.17,-0.00213,79.23,,,,,,,
99932.24,-0.00211,80.0,,,,,,,
99932.69,-0.00206,81.91,,,,,,,
99933.17,-0.00202,81.84,,,,,,,
99933.22,-0.00201,81.9,,,,,,,
99933.61,-0.00196,81.99,,,,,,,
99934.17,-0.00192,79.83,,,,,,,
99934.26,-0.00191,80.03,,,,,,,
99934.62,-0.00186,81.91,,,,,,,
99935.15,-0.00181,83.04,,,,,,,
99935.17,-0.00181,83.09,,,,,,,
99935.76,-0.00176,83.2,,,,,,,
99936.15,-0.00171,82.23,,,,,,,
99936.17,-0.00171,82.15,,,,,,,
99936.66,-0.00166,82.97,,,,,,,
99937.02,-0.00161,81.57,,,,,,,
99937.17,-0.0016,80.26,,,,,,,
99937.69,-0.00156,80.47,,,,,,,
99938.15,-0.00151,81.93,,,,,,,
99938.17,-0.00151,81.98,,,,,,,
99938.68,-0.00146,82.51,,,,,,,
99939.12,-0.00141,81.84,,,,,,,
99939.17,-0.00141,81.78,,,,,,,
99939.65,-0.00136,84.2,,,,,,,
99940.17,-0.00131,83.43,,,,,,,
99940.2,-0.00131,83.48,,,,,,,
99940.62,-0.00126,84.99,,,,,,,
99941.12,-0.00121,84.25,,,,,,,
99941.17,-0.00121,84.23,,,,,,,
99941.54,-0.00116,84.23,,,,,,,
99942.09,-0.00111,80.0,,,,,,,
99942.17,-0.0011,79.99,,,,,,,
99942.63,-0.00106,80.48,,,,,,,
99943.04,-0.00101,81.23,,,,,,,
99943.17,-0.001,80.59,,,,,,,
99943.65,-0.00096,82.05,,,,,,,
99944.05,-0.00091,82.7,,,,,,,
99944.17,-0.00089,82.3,,,,,,,
99944.56,-0.00086,80.67,,,,,,,
99945.05,-0.00081,79.31,,,,,,,
99945.17,-0.0008,79.1,,,,,,,
99945.59,-0.00076,81.34,,,,,,,
99946.08,-0.00071,83.18,,,,,,,
99946.17,-0.0007,83.28,,,,,,,
99946.65,-0.00066,83.17,,,,,,,
99947.01,-0.00061,85.5,,,,,,,
99947.17,-0.00059,84.77,,,,,,,
99947.64,-0.00056,85.2,,,,,,,
99948.04,-0.00051,85.72,,,,,,,
99948.17,-0.00049,84.85,,,,,,,
99948.64,-0.00046,84.52,,,,,,,
99949.01,-0.00041,85.92,,,,,,,
99949.17,-0.0004,85.41,,,,,,,
99949.55,-0.00036,85.88,,,,,,,
99950.11,-0.00031,86.86,,,,,,,
99950.17,-0.00029,87.07,,,,,,,
99950.48,-0.00026,86.22,,,,,,,
99951.01,-0.00021,83.66,,,,,,,
99951.17,-0.0002,83.18,,,,,,,
99951.58,-0.00016,81.64,,,,,,,
99951.87,-0.00011,80.74,,,,,,,
99952.17,-8e-05,76.21,,,,,,,
99952.5,-6e-05,72.79,,,,,,,
99953.0,-1e-05,73.9,,,,,,,
129605.17,0.00498,69.7,,,,,,,
129605.89,0.00491,60.06,,,,,,,
129606.17,0.00489,58.27,,,,,,,
129606.29,0.00486,57.28,,,,,,,
129606.86,0.00481,53.06,,,,,,,
129607.17,0.00478,51.8,,,,,,,
129607.55,0.00476,47.46,,,,,,,
129608.01,0.00471,42.03,,,,,,,
129608.17,0.00469,39.79,,,,,,,
129608.43,0.00466,38.24,,,,,,,
129608.96,0.00461,35.47,,,,,,,
129609.17,0.0046,34.05,,,,,,,
129609.47,0.00456,32.06,,,,,,,
129610.03,0.00451,28.8,,,,,,,
129610.17,0.0045,27.63,,,,,,,
129610.45,0.00446,25.9,,,,,,,
129611.05,0.00441,22.75,,,,,,,
129611.17,0.0044,21.82,,,,,,,
129611.5,0.00436,19.16,,,,,,,
129612.03,0.00431,16.23,,,,,,,
129612.17,0.0043,15.57,,,,,,,
129612.57,0.00426,12.62,,,,,,,
129613.07,0.00421,9.52,,,,,,,
129613.17,0.0042,8.68,,,,,,,
129613.54,0.00416,7.05,,,,,,,
129614.17,0.00412,3.57,,,,,,,
129614.23,0.00411,2.8,,,,,,,
129614.96,0.00406,-0.21,,,,,,,
129615.17,0.00404,-1.33,,,,,,,
129615.46,0.00401,-3.93,,,,,,,
129615.85,0.00396,-7.17,,,,,,,
129616.17,0.00393,-9.6,,,,,,,
129616.39,0.00391,-11.14,,,,,,,
129616.7,0.00386,-12.48,,,,,,,
129616.92,0.00381,-14.64,,,,,,,
129617.17,0.00379,-14.54,,,,,,,
129617.47,0.00376,-15.41,,,,,,,
129617.99,0.00371,-18.51,,,,,,,
129618.17,0.0037,-19.05,,,,,,,
129618.5,0.00366,-21.37,,,,,,,
129618.97,0.00361,-23.49,,,,,,,
129619.17,0.0036,-24.44,,,,,,,
129619.57,0.00356,-27.55,,,,,,,
129620.03,0.00351,-29.28,,,,,,,
129620.17,0.00349,-30.03,,,,,,,
129620.56,0.00346,-31.63,,,,,,,
129621.07,0.00341,-32.4,,,,,,,
129621.17,0.0034,-33.38,,,,,,,
129621.48,0.00336,-34.01,,,,,,,
129622.01,0.00331,-36.24,,,,,,,
129622.17,0.0033,-36.95,,,,,,,
129622.5,0.00326,-40.28,,,,,,,
129622.88,0.00321,-38.83,,,,,,,
129623.17,0.0032,-38.12,,,,,,,
129623.48,0.00316,-40.51,,,,,,,
129623.9,0.00311,-39.95,,,,,,,
129624.17,0.00309,-40.56,,,,,,,
129624.55,0.00306,-42.07,,,,,,,
129625.09,0.00301,-43.66,,,,,,,
129625.17,0.003,-44.28,,,,,,,
129625.53,0.00296,-46.01,,,,,,,
129626.0,0.00291,-47.58,,,,,,,
129626.17,0.00289,-47.79,,,,,,,
129626.57,0.00286,-49.83,,,,,,,
129627.07,0.00281,-51.79,,,,,,,
129627.17,0.00277,-52.39,,,,,,,
129627.49,0.00276,-51.52,,,,,,,
129628.0,0.00271,-53.83,,,,,,,
129628.17,0.00268,-53.4,,,,,,,
129628.46,0.00266,-53.24,,,,,,,
129628.9,0.00261,-53.27,,,,,,,
129629.17,0.00258,-51.8,,,,,,,
129629.39,0.00256,-51.03,,,,,,,
129630.0,0.00251,-51.24,,,,,,,
129630.17,0.00249,-52.1,,,,,,,
129630.47,0.00246,-52.02,,,,,,,
129630.95,0.00241,-53.52,,,,,,,
129631.17,0.00238,-53.24,,,,,,,
129631.45,0.00236,-53.17,,,,,,,
129631.94,0.00231,-53.83,,,,,,,
129632.17,0.00229,-54.21,,,,,,,
129632.42,0.00226,-55.27,,,,,,,
129632.94,0.00221,-56.42,,,,,,,
129633.17,0.00219,-56.88,,,,,,,
129633.52,0.00216,-57.15,,,,,,,
129633.96,0.00211,-58.57,,,,,,,
129634.17,0.00209,-59.19,,,,,,,
129634.45,0.00206,-59.28,,,,,,,
129635.02,0.00201,-61.13,,,,,,,
129635.17,0.00198,-61.81,,,,,,,
129635.53,0.00196,-64.06,,,,,,,
129635.86,0.00191,-63.95,,,,,,,
129636.17,0.00188,-62.84,,,,,,,
129636.38,0.00186,-62.13,,,,,,,
129636.98,0.00181,-61.93,,,,,,,
129637.17,0.00178,-62.32,,,,,,,
129637.49,0.00176,-63.01,,,,,,,
129638.05,0.00171,-64.79,,,,,,,
129638.17,0.00169,-66.04,,,,,,,
129638.36,0.00166,-66.31,,,,,,,
129638.89,0.00161,-65.67,,,,,,,
129639.17,0.00157,-64.76,,,,,,,
129639.32,0.00156,-63.81,,,,,,,
129639.86,0.00151,-63.77,,,,,,,
129640.17,0.00149,-63.29,,,,,,,
129640.33,0.00146,-63.9,,,,,,,
129640.88,0.00141,-63.46,,,,,,,
129641.17,0.00138,-64.05,,,,,,,
129641.38,0.00136,-64.13,,,,,,,
129641.89,0.00131,-63.95,,,,,,,
129642.17,0.00128,-64.73,,,,,,,
129642.38,0.00126,-64.81,,,,,,,
129642.88,0.00121,-64.07,,,,,,,
129643.17,0.00118,-63.85,,,,,,,
129643.31,0.00116,-63.59,,,,,,,
129643.79,0.00111,-65.05,,,,,,,
129644.17,0.00107,-65.23,,,,,,,
129644.35,0.00106,-65.38,,,,,,,
129644.93,0.00101,-65.4,,,,,,,
129645.17,0.00097,-66.18,,,,,,,
129645.27,0.00096,-65.75,,,,,,,
129645.79,0.00091,-64.53,,,,,,,
129646.17,0.00088,-63.66,,,,,,,
129646.3,0.00086,-63.82,,,,,,,
129646.87,0.00081,-64.57,,,,,,,
129647.17,0.00078,-64.83,,,,,,,
129647.46,0.00076,-65.42,,,,,,,
129647.86,0.00071,-66.15,,,,,,,
129648.17,0.00068,-65.92,,,,,,,
129648.32,0.00066,-65.92,,,,,,,
129648.93,0.00061,-65.55,,,,,,,
129649.17,0.00058,-66.8,,,,,,,
129649.36,0.00056,-67.27,,,,,,,
129649.87,0.00051,-68.38,,,,,,,
129650.17,0.00046,-67.62,,,,,,,
129650.26,0.00046,-66.8,,,,,,,
129650.78,0.0004,-66.22,,,,,,,
129651.17,0.00038,-65.51,,,,,,,
129651.34,0.00035,-65.93,,,,,,,
129651.82,0.0003,-66.44,,,,,,,
129652.17,0.00027,-66.2,,,,,,,
129652.37,0.00025,-65.74,,,,,,,
129652.81,0.0002,-66.96,,,,,,,
129653.17,0.00017,-65.98,,,,,,,
129653.36,0.00015,-66.21,,,,,,,
129653.82,0.0001,-66.88,,,,,,,
129654.17,8e-05,-67.03,,,,,,,
129654.4,5e-05,-68.91,,,,,,,
129654.86,0.0,-68.96,,,,,,,
129655.17,-3e-05,-68.87,,,,,,,
129655.37,-5e-05,-69.19,,,,,,,
129655.87,-0.0001,-70.3,,,,,,,
129656.17,-0.00013,-70.76,,,,,,,
129656.37,-0.00015,-70.85,,,,,,,
129656.81,-0.0002,-70.37,,,,,,,
129657.17,-0.00024,-70.23,,,,,,,
129657.33,-0.00025,-69.25,,,,,,,
129657.84,-0.0003,-68.48,,,,,,,
129658.17,-0.00032,-69.04,,,,,,,
129658.35,-0.00035,-69.93,,,,,,,
129658.82,-0.0004,-70.6,,,,,,,
129659.17,-0.00043,-70.32,,,,,,,
129659.39,-0.00045,-71.38,,,,,,,
129659.9,-0.0005,-70.03,,,,,,,
129660.17,-0.00053,-70.14,,,,,,,
129660.34,-0.00055,-70.58,,,,,,,
129660.96,-0.0006,-70.76,,,,,,,
129661.17,-0.00063,-71.66,,,,,,,
129661.31,-0.00065,-71.82,,,,,,,
129661.78,-0.0007,-71.82,,,,,,,
129662.17,-0.00074,-69.7,,,,,,,
129662.33,-0.00075,-69.04,,,,,,,
129662.76,-0.0008,-69.1,,,,,,,
129663.17,-0.00083,-68.06,,,,,,,
129663.28,-0.00085,-68.12,,,,,,,
129663.85,-0.0009,-68.23,,,,,,,
129664.17,-0.00093,-68.41,,,,,,,
129664.43,-0.00095,-68.69,,,,,,,
129664.85,-0.001,-69.61,,,,,,,
129665.17,-0.00103,-70.78,,,,,,,
129665.36,-0.00105,-71.25,,,,,,,
129665.96,-0.0011,-72.04,,,,,,,
129666.17,-0.00114,-72.34,,,,,,,
129666.25,-0.00115,-71.6,,,,,,,
129666.82,-0.0012,-70.51,,,,,,,
129667.17,-0.00124,-69.99,,,,,,,
129667.29,-0.00125,-69.68,,,,,,,
129667.82,-0.0013,-71.28,,,,,,,
129668.17,-0.00133,-70.34,,,,,,,
129668.33,-0.00135,-70.15,,,,,,,
129668.77,-0.0014,-72.0,,,,,,,
129669.17,-0.00143,-71.11,,,,,,,
129669.27,-0.00145,-70.82,,,,,,,
129669.91,-0.0015,-70.74,,,,,,,
129670.17,-0.00154,-71.19,,,,,,,
129670.32,-0.00155,-70.87,,,,,,,
129670.86,-0.0016,-70.25,,,,,,,
129671.17,-0.00163,-70.59,,,,,,,
129671.25,-0.00165,-70.8,,,,,,,
129671.83,-0.0017,-69.82,,,,,,,
129672.17,-0.00173,-69.92,,,,,,,
129672.36,-0.00175,-70.66,,,,,,,
129672.86,-0.0018,-71.24,,,,,,,
129673.17,-0.00182,-71.84,,,,,,,
129673.32,-0.00185,-72.48,,,,,,,
129673.86,-0.0019,-72.36,,,,,,,
129674.17,-0.00193,-73.23,,,,,,,
129674.34,-0.00195,-73.05,,,,,,,
129674.82,-0.002,-71.79,,,,,,,
129675.17,-0.00203,-71.75,,,,,,,
129675.34,-0.00205,-72.45,,,,,,,
129675.8,-0.0021,-71.86,,,,,,,
129676.17,-0.00212,-72.87,,,,,,,
129676.42,-0.00215,-74.7,,,,,,,
129676.84,-0.0022,-74.65,,,,,,,
129677.17,-0.00223,-73.66,,,,,,,
129677.32,-0.00225,-73.36,,,,,,,
129677.85,-0.0023,-72.87,,,,,,,
129678.17,-0.00233,-71.93,,,,,,,
129678.36,-0.00235,-72.22,,,,,,,
129678.83,-0.0024,-71.22,,,,,,,
129679.17,-0.00242,-70.84,,,,,,,
129679.34,-0.00245,-72.62,,,,,,,
129679.73,-0.0025,-71.15,,,,,,,
129680.17,-0.00254,-69.72,,,,,,,
129680.31,-0.00255,-69.52,,,,,,,
129680.89,-0.0026,-70.7,,,,,,,
129681.17,-0.00264,-70.75,,,,,,,
129681.37,-0.00265,-70.71,,,,,,,
129681.84,-0.0027,-72.87,,,,,,,
129682.17,-0.00274,-72.84,,,,,,,
129682.4,-0.00275,-72.94,,,,,,,
129682.92,-0.0028,-73.43,,,,,,,
129683.17,-0.00283,-74.22,,,,,,,
129683.37,-0.00285,-74.69,,,,,,,
129683.88,-0.0029,-75.88,,,,,,,
129684.17,-0.00293,-75.68,,,,,,,
129684.32,-0.00295,-75.93,,,,,,,
129684.82,-0.003,-75.04,,,,,,,
129685.17,-0.00303,-73.83,,,,,,,
129685.32,-0.00305,-73.51,,,,,,,
129685.86,-0.0031,-72.01,,,,,,,
129686.17,-0.00313,-72.2,,,,,,,
129686.42,-0.00315,-72.28,,,,,,,
129686.81,-0.0032,-72.46,,,,,,,
129687.17,-0.00323,-71.87,,,,,,,
129687.38,-0.00325,-71.97,,,,,,,
129687.85,-0.0033,-71.48,,,,,,,
129688.17,-0.00334,-71.21,,,,,,,
129688.3,-0.00335,-70.91,,,,,,,
129688.94,-0.0034,-72.84,,,,,,,
129689.17,-0.00344,-73.23,,,,,,,
129689.43,-0.00345,-72.79,,,,,,,
129689.79,-0.0035,-72.11,,,,,,,
129690.17,-0.00354,-71.37,,,,,,,
129690.38,-0.00355,-71.43,,,,,,,
129690.92,-0.0036,-72.22,,,,,,,
129691.17,-0.00363,-72.35,,,,,,,
129691.32,-0.00365,-72.4,,,,,,,
129691.91,-0.0037,-71.91,,,,,,,
129692.17,-0.00373,-72.28,,,,,,,
129692.36,-0.00375,-72.98,,,,,,,
129692.82,-0.0038,-71.78,,,,,,,
129693.17,-0.00383,-71.92,,,,,,,
129693.41,-0.00385,-73.23,,,,,,,
129693.92,-0.0039,-74.83,,,,,,,
129694.17,-0.00393,-75.48,,,,,,,
129694.48,-0.00395,-76.11,,,,,,,
129694.92,-0.004,-75.13,,,,,,,
129695.17,-0.00402,-76.31,,,,,,,
129695.43,-0.00405,-77.9,,,,,,,
129695.78,-0.0041,-78.76,,,,,,,
129696.17,-0.00414,-76.2,,,,,,,
129696.48,-0.00415,-77.6,,,,,,,
129696.81,-0.0042,-78.3,,,,,,,
129697.17,-0.00423,-76.09,,,,,,,
129697.33,-0.00425,-75.89,,,,,,,
129697.84,-0.0043,-73.7,,,,,,,
129698.17,-0.00433,-73.3,,,,,,,
129698.42,-0.00435,-73.74,,,,,,,
129698.91,-0.0044,-74.93,,,,,,,
129699.17,-0.00443,-75.31,,,,,,,
129699.41,-0.00445,-75.4,,,,,,,
129699.84,-0.0045,-75.18,,,,,,,
129700.17,-0.00454,-74.63,,,,,,,
129700.33,-0.00455,-74.32,,,,,,,
129700.86,-0.0046,-73.34,,,,,,,
129701.17,-0.00463,-72.99,,,,,,,
129701.42,-0.00465,-73.13,,,,,,,
129701.82,-0.0047,-74.05,,,,,,,
129702.17,-0.00473,-74.39,,,,,,,
129702.42,-0.00475,-75.05,,,,,,,
129702.89,-0.0048,-76.94,,,,,,,
129703.17,-0.00482,-77.64,,,,,,,
129703.5,-0.00485,-80.34,,,,,,,
129703.9,-0.0049,-82.12,,,,,,,
129704.17,-0.00492,-82.57,,,,,,,
129704.39,-0.00495,-83.77,,,,,,,
129705.17,-0.005,-79.94,,,,,,,
129706.01,-0.0049,-65.23,,,,,,,
129706.17,-0.00489,-63.08,,,,,,,
129706.61,-0.00485,-55.46,,,,,,,
129707.07,-0.0048,-51.0,,,,,,,
129707.17,-0.00479,-49.96,,,,,,,
129707.5,-0.00475,-46.83,,,,,,,
129708.08,-0.0047,-42.7,,,,,,,
129708.17,-0.00469,-41.76,,,,,,,
129708.56,-0.00465,-39.26,,,,,,,
129709.03,-0.0046,-34.98,,,,,,,
129709.17,-0.00459,-34.35,,,,,,,
129709.53,-0.00455,-32.12,,,,,,,
129710.09,-0.0045,-29.68,,,,,,,
129710.17,-0.0045,-29.04,,,,,,,
129710.51,-0.00445,-27.03,,,,,,,
129711.09,-0.0044,-24.57,,,,,,,
129711.17,-0.0044,-23.91,,,,,,,
129711.61,-0.00435,-20.12,,,,,,,
129712.07,-0.0043,-15.42,,,,,,,
129712.17,-0.00429,-15.26,,,,,,,
129712.64,-0.00425,-11.59,,,,,,,
129713.16,-0.0042,-8.36,,,,,,,
129713.17,-0.0042,-8.23,,,,,,,
129713.67,-0.00415,-5.75,,,,,,,
129714.17,-0.0041,-1.74,,,,,,,
129714.18,-0.0041,-1.68,,,,,,,
129714.64,-0.00405,1.43,,,,,,,
129715.17,-0.004,4.78,,,,,,,
129715.18,-0.004,4.82,,,,,,,
129715.61,-0.00395,6.26,,,,,,,
129716.14,-0.0039,7.51,,,,,,,
129716.17,-0.0039,7.62,,,,,,,
129716.67,-0.00385,9.33,,,,,,,
129717.13,-0.0038,10.2,,,,,,,
129717.17,-0.0038,10.12,,,,,,,
129718.0,-0.00375,14.0,,,,,,,
129718.17,-0.00373,15.77,,,,,,,
129718.25,-0.0037,16.9,,,,,,,
129718.82,-0.00365,20.3,,,,,,,
129719.17,-0.00363,21.85,,,,,,,
129719.42,-0.0036,23.64,,,,,,,
129719.82,-0.00355,25.48,,,,,,,
129720.16,-0.0035,26.9,,,,,,,
129720.17,-0.0035,27.01,,,,,,,
129720.62,-0.00345,28.23,,,,,,,
129721.11,-0.0034,30.49,,,,,,,
129721.17,-0.00339,30.83,,,,,,,
129721.62,-0.00335,29.5,,,,,,,
129722.15,-0.0033,30.98,,,,,,,
129722.17,-0.0033,31.11,,,,,,,
129722.61,-0.00325,33.53,,,,,,,
129723.11,-0.0032,36.88,,,,,,,
129723.17,-0.00319,37.13,,,,,,,
129723.62,-0.00315,38.76,,,,,,,
129724.07,-0.0031,40.54,,,,,,,
129724.17,-0.00309,40.65,,,,,,,
129724.57,-0.00305,41.39,,,,,,,
129725.14,-0.003,40.77,,,,,,,
129725.17,-0.003,41.0,,,,,,,
129725.56,-0.00295,42.91,,,,,,,
129726.08,-0.0029,45.39,,,,,,,
129726.17,-0.00289,45.6,,,,,,,
129726.62,-0.00285,46.47,,,,,,,
129727.14,-0.0028,47.85,,,,,,,
129727.17,-0.0028,48.06,,,,,,,
129727.53,-0.00275,48.17,,,,,,,
129728.1,-0.0027,48.11,,,,,,,
129728.17,-0.00269,48.4,,,,,,,
129728.55,-0.00265,50.06,,,,,,,
129729.11,-0.0026,51.73,,,,,,,
129729.17,-0.00259,51.89,,,,,,,
129729.44,-0.00255,51.21,,,,,,,
129730.1,-0.0025,53.65,,,,,,,
129730.17,-0.00249,53.97,,,,,,,
129730.52,-0.00245,54.76,,,,,,,
129730.96,-0.0024,53.92,,,,,,,
129731.17,-0.00238,52.71,,,,,,,
129731.51,-0.00235,52.08,,,,,,,
129731.99,-0.0023,52.05,,,,,,,
129732.17,-0.00228,51.89,,,,,,,
129732.61,-0.00225,53.37,,,,,,,
129733.09,-0.0022,56.25,,,,,,,
129733.17,-0.00219,56.67,,,,,,,
129733.53,-0.00215,57.81,,,,,,,
129734.0,-0.0021,58.86,,,,,,,
129734.17,-0.00209,58.83,,,,,,,
129734.53,-0.00205,58.79,,,,,,,
129735.03,-0.002,60.72,,,,,,,
129735.17,-0.00198,60.96,,,,,,,
129735.54,-0.00195,61.37,,,,,,,
129736.01,-0.0019,61.82,,,,,,,
129736.17,-0.00188,61.87,,,,,,,
129736.5,-0.00185,61.68,,,,,,,
129736.93,-0.0018,60.77,,,,,,,
129737.17,-0.00177,59.07,,,,,,,
129737.53,-0.00175,58.81,,,,,,,
129738.04,-0.0017,60.73,,,,,,,
129738.17,-0.00168,61.29,,,,,,,
129738.46,-0.00165,61.7,,,,,,,
129738.99,-0.0016,62.75,,,,,,,
129739.17,-0.00158,63.29,,,,,,,
129739.46,-0.00155,63.04,,,,,,,
129739.96,-0.0015,63.45,,,,,,,
129740.17,-0.00148,63.54,,,,,,,
129740.5,-0.00145,64.83,,,,,,,
129740.97,-0.0014,64.62,,,,,,,
129741.17,-0.00137,63.64,,,,,,,
129741.47,-0.00135,62.13,,,,,,,
129742.04,-0.0013,63.48,,,,,,,
129742.17,-0.00127,64.15,,,,,,,
129742.5,-0.00125,64.23,,,,,,,
129742.99,-0.0012,65.21,,,,,,,
129743.17,-0.00118,65.67,,,,,,,
129743.44,-0.00115,65.86,,,,,,,
129744.0,-0.0011,66.3,,,,,,,
129744.17,-0.00107,66.36,,,,,,,
129744.5,-0.00105,66.32,,,,,,,
129744.98,-0.001,66.17,,,,,,,
129745.17,-0.00097,66.42,,,,,,,
129745.52,-0.00095,65.92,,,,,,,
129745.77,-0.0009,66.35,,,,,,,
129746.17,-0.00087,62.99,,,,,,,
129746.43,-0.00085,63.66,,,,,,,
129746.88,-0.0008,64.32,,,,,,,
129747.17,-0.00078,63.72,,,,,,,
129747.45,-0.00075,64.81,,,,,,,
129747.77,-0.0007,64.35,,,,,,,
129748.17,-0.00066,60.66,,,,,,,
129748.32,-0.00065,59.81,,,,,,,
129749.0,-0.0006,63.76,,,,,,,
129749.17,-0.00057,64.21,,,,,,,
129749.4,-0.00055,63.84,,,,,,,
129749.86,-0.0005,64.6,,,,,,,
129750.17,-0.00049,63.42,,,,,,,
129750.54,-0.00045,67.94,,,,,,,
129750.9,-0.0004,69.99,,,,,,,
129751.17,-0.00038,68.86,,,,,,,
129751.46,-0.00035,69.39,,,,,,,
129751.92,-0.0003,68.98,,,,,,,
129752.17,-0.00027,68.28,,,,,,,
129752.32,-0.00025,67.59,,,,,,,
129752.93,-0.0002,66.58,,,,,,,
129753.17,-0.00017,66.35,,,,,,,
129753.43,-0.00015,66.21,,,,,,,
129753.95,-0.0001,67.33,,,,,,,
129754.17,-7e-05,68.21,,,,,,,
129754.43,-5e-05,67.84,,,,,,,
129755.0,0.0,69.02,,,,,,,
129755.17,3e-05,70.12,,,,,,,
129755.46,5e-05,69.53,,,,,,,
129755.96,0.0001,69.98,,,,,,,
129756.17,0.00013,69.96,,,,,,,
129756.46,0.00015,69.33,,,,,,,
129756.98,0.0002,68.9,,,,,,,
129757.17,0.00023,69.26,,,,,,,
129757.47,0.00025,68.95,,,,,,,
129757.93,0.0003,69.69,,,,,,,
129758.17,0.00032,69.17,,,,,,,
129758.3,0.00035,69.18,,,,,,,
129758.92,0.0004,69.27,,,,,,,
129759.17,0.00042,69.16,,,,,,,
129759.43,0.00045,70.45,,,,,,,
129759.9,0.0005,69.04,,,,,,,
129760.17,0.00053,67.89,,,,,,,
129760.38,0.00055,67.78,,,,,,,
129760.89,0.0006,66.93,,,,,,,
129761.17,0.00063,67.25,,,,,,,
129761.46,0.00065,67.53,,,,,,,
129761.93,0.0007,67.61,,,,,,,
129762.17,0.00073,67.3,,,,,,,
129762.33,0.00075,67.34,,,,,,,
129762.97,0.0008,66.83,,,,,,,
129763.17,0.00083,67.73,,,,,,,
129763.46,0.00085,67.52,,,,,,,
129763.86,0.00091,68.98,,,,,,,
129764.17,0.00093,68.96,,,,,,,
129764.46,0.00096,69.56,,,,,,,
129764.97,0.00101,69.63,,,,,,,
129765.17,0.00104,70.11,,,,,,,
129765.26,0.00106,69.59,,,,,,,
129765.98,0.00111,70.68,,,,,,,
129766.17,0.00113,71.3,,,,,,,
129766.35,0.00116,71.04,,,,,,,
129766.93,0.00121,70.39,,,,,,,
129767.17,0.00123,70.31,,,,,,,
129767.36,0.00126,70.58,,,,,,,
129767.93,0.00131,69.32,,,,,,,
129768.17,0.00134,67.31,,,,,,,
129768.36,0.00136,66.89,,,,,,,
129769.03,0.00141,67.01,,,,,,,
129769.17,0.00143,68.2,,,,,,,
129769.47,0.00146,68.86,,,,,,,
129770.01,0.00151,71.4,,,,,,,
129770.17,0.00154,71.67,,,,,,,
129770.22,0.00156,71.31,,,,,,,
129770.98,0.00161,67.46,,,,,,,
129771.17,0.00163,68.04,,,,,,,
129771.43,0.00166,68.35,,,,,,,
129771.92,0.00171,68.82,,,,,,,
129772.17,0.00173,68.79,,,,,,,
129772.35,0.00176,68.7,,,,,,,
129772.96,0.00181,67.61,,,,,,,
129773.17,0.00183,68.09,,,,,,,
129773.43,0.00186,69.06,,,,,,,
129773.86,0.00191,68.73,,,,,,,
129774.17,0.00192,68.81,,,,,,,
129774.37,0.00196,70.28,,,,,,,
129774.82,0.00201,70.44,,,,,,,
129775.17,0.00202,69.79,,,,,,,
129775.43,0.00206,71.13,,,,,,,
129775.87,0.00211,72.01,,,,,,,
129776.17,0.00213,70.57,,,,,,,
129776.5,0.00216,70.93,,,,,,,
129776.92,0.00221,71.63,,,,,,,
129777.17,0.00223,71.33,,,,,,,
129777.45,0.00226,72.13,,,,,,,
129777.9,0.00231,72.08,,,,,,,
129778.17,0.00233,71.43,,,,,,,
129778.43,0.00236,71.65,,,,,,,
129778.89,0.00241,71.81,,,,,,,
129779.17,0.00243,71.31,,,,,,,
129779.46,0.00246,72.51,,,,,,,
129779.96,0.00251,73.05,,,,,,,
129780.17,0.00253,73.38,,,,,,,
129780.47,0.00256,74.03,,,,,,,
129780.85,0.00261,73.14,,,,,,,
129781.17,0.00263,72.68,,,,,,,
129781.47,0.00266,73.93,,,,,,,
129781.96,0.00271,73.38,,,,,,,
129782.17,0.00273,73.36,,,,,,,
129782.46,0.00276,73.91,,,,,,,
129782.97,0.00281,72.83,,,,,,,
129783.17,0.00284,72.72,,,,,,,
129783.48,0.00286,72.15,,,,,,,
129783.89,0.00291,71.08,,,,,,,
129784.17,0.00294,70.18,,,,,,,
129784.5,0.00296,70.08,,,,,,,
129784.86,0.00301,69.99,,,,,,,
129785.17,0.00303,68.84,,,,,,,
129785.46,0.00306,69.19,,,,,,,
129785.94,0.00311,70.61,,,,,,,
129786.17,0.00313,69.84,,,,,,,
129786.47,0.00316,71.38,,,,,,,
129786.97,0.00321,71.23,,,,,,,
129787.17,0.00323,72.15,,,,,,,
129787.46,0.00326,72.71,,,,,,,
129787.9,0.00331,71.85,,,,,,,
129788.17,0.00333,71.62,,,,,,,
129788.47,0.00336,71.55,,,,,,,
129789.02,0.00341,73.22,,,,,,,
129789.17,0.00344,73.67,,,,,,,
129789.43,0.00346,73.0,,,,,,,
129789.96,0.00351,72.76,,,,,,,
129790.17,0.00354,72.45,,,,,,,
129790.48,0.00356,72.12,,,,,,,
129790.93,0.00361,72.53,,,,,,,
129791.17,0.00363,72.08,,,,,,,
129791.46,0.00366,72.81,,,,,,,
129792.01,0.00371,74.84,,,,,,,
129792.17,0.00373,75.33,,,,,,,
129792.46,0.00376,75.03,,,,,,,
129793.02,0.00381,73.71,,,,,,,
129793.17,0.00383,74.16,,,,,,,
129793.43,0.00386,73.72,,,,,,,
129794.0,0.00391,74.03,,,,,,,
129794.17,0.00394,74.1,,,,,,,
129794.49,0.00396,73.36,,,,,,,
129794.98,0.00401,73.69,,,,,,,
129795.17,0.00404,73.99,,,,,,,
129795.5,0.00406,73.24,,,,,,,
129795.89,0.00411,73.26,,,,,,,
129796.17,0.00414,71.9,,,,,,,
129796.38,0.00416,70.71,,,,,,,
129796.97,0.00421,71.12,,,,,,,
129797.17,0.00424,71.22,,,,,,,
129797.45,0.00426,70.53,,,,,,,
129798.01,0.00431,71.09,,,,,,,
129798.17,0.00433,71.99,,,,,,,
129798.5,0.00436,71.93,,,,,,,
129799.03,0.00441,73.6,,,,,,,
129799.17,0.00443,74.01,,,,,,,
129799.33,0.00446,73.54,,,,,,,
129799.99,0.00451,73.3,,,,,,,
129800.17,0.00453,73.34,,,,,,,
129800.48,0.00456,74.25,,,,,,,
129800.9,0.00461,74.77,,,,,,,
129801.17,0.00464,73.48,,,,,,,
129801.46,0.00466,72.34,,,,,,,
129801.95,0.00471,71.74,,,,,,,
129802.17,0.00473,71.76,,,,,,,
129802.46,0.00476,72.01,,,,,,,
129803.01,0.00481,72.34,,,,,,,
129803.17,0.00484,72.88,,,,,,,
129803.51,0.00486,72.92,,,,,,,
129803.98,0.00491,72.29,,,,,,,
129804.17,0.00493,72.31,,,,,,,
129804.52,0.00496,73.93,,,,,,,
